#     FILENAME=Skynet_59735_AP_-_ST3_81159_29887.A.cal.txt
#     BASENAME=Skynet_59735_AP_-_ST3_81159_29887
#      CONTROL=SKYNET
#     PROJCODE=Skynet_59735_AP_-_ST3_81159
#     DATAROOT=/raid/scratch/cyborg/SkynetData
#      DATADIR=/raid/scratch/cyborg
#     DATADIR2=/raid/scratch/cyborg/SkynetData/Skynet_59735_AP_-_ST3_81159/Cyb
#     SCANNAME=2022_05_26_22
#     SRC_NAME=AP_-_ST3
#     OBSERVER=socamrad_21318
#     DATE_OBS=2022-06-05T19:37:56.450
#        OBSID=81159
#      SCANNUM=29887
#          MJD=59735.8180145
#          UTC=70676
#     SCANTYPE=ralongmap
#     DATAMODE=HIRES
#     RECEIVER=Rx1_2
#      OBSFREQ=1421.8800
# Actual_FREQ1=1550.0000,
# Actual_FREQ2=1425.0000
#    LO1Tuning=6937.5000
#     RFFILTER=1300_1800
#        OBSBW=-15.6250
#     EFFBANDW=15.6250
#        NCHAN=1024
#    STARTCHAN=51
#     STOPCHAN=972
#         TINT=0.3000
#         TBIN=0.00419430
#       ACCLEN=2048 
#     DURATION=147.00
#     EXPOSURE=98.39
#        FOCUS=37.071
#       RA,DEC=05:30:44.34, 17:17:45.36
#      RA(deg)=85.44407
#     DEC(deg)=19.98307
#   WIDTH(deg)=5.6474x5.8823
#    AZIM(deg)=233.7448
#    ELEV(deg)=62.4715
#     COORDREF=RA_DEC_
#         HREF=85.5000
#         VREF=20.0000
#      RADESYS=FK5
#       OFFSYS=RADEC
#      EQUINOX=2000.00
#     IFATTENS=16.00, 19.00
#   BALANCELEV=1.200 
#   POWER_XLYR=[1.07, 1.38] 
#       VELDEF=RADI-OBS 
#     VELOCITY=0.000 
#         NPOL=2 
#      POLMODE=Linear 
#      POLTYPE=XXYY 
#      WARNING=None 
#     NOISECAL=HI 
#       PRECAL=2 
#      POSTCAL=2 
#     CRYOTEMP=15 
#      BOXTEMP=23 
#         TSYS=XX1:76.12, YY1:111.95
#         TSYS=XX2:36.62, YY2:49.27
#         TCAL=XX1:9.31, YY1:11.00
#         TCAL=XX2:9.18, YY2:10.14
# Calibrated Continuum 
#                
#UTC_Time(s)   Ra(deg)  Dec(deg)   Az(deg)   El(deg)        XX1        YY1        XX2        YY2  Cal   Sweeps 
70676.450000  82.68480   17.2959  233.5970   58.9722   534.0299   192.7108    36.4684    48.4006  -1    0  0 
70676.750000  82.68585   17.2959  233.5970   58.9722   545.4551   195.3810    36.2602    48.4960  -1    0  0 
70677.050000  82.68750   17.2961  233.5970   58.9724   542.8938   194.6587    36.2618    48.4880  -1    0  0 
70677.350000  82.68915   17.2960  233.5960   58.9727   539.5741   192.6575    36.2822    48.4913  -1    0  0 
70677.650000  82.69080   17.2960  233.5960   58.9727   539.9682   191.4244    36.3253    48.4615  -1    0  0 
70677.950000  82.69095   17.2961  233.5970   58.9724   545.6546   189.8401    36.2989    48.4948  -1    0  0 
70678.250000  82.69275   17.2961  233.5970   58.9724   548.0711   189.1356    36.2789    48.5251  -1    0  0 
70678.550000  82.69425   17.2960  233.5960   58.9727   555.2637   188.5634    36.2681    48.5024  -1    0  0 
70678.850000  82.69545   17.2963  233.5970   58.9726   567.4129   188.8446    36.2812    48.5413  -1    0  0 
70679.150000  82.69650   17.2963  233.5970   58.9726   567.2945   189.4152    36.2786    48.4232  -1    0  0 
70679.450000  82.69860   17.2960  233.5960   58.9727   556.7412   189.1174    36.2269    48.4648  -1    0  0 
70679.750000  82.69860   17.2963  233.5970   58.9726   553.3828   189.8465    36.2651    48.4324  -1    0  0 
70680.050000  82.70070   17.2963  233.5970   58.9726   548.7268   189.7090    36.2918    48.5034   0    0  0 
70680.350000  82.70160   17.2963  233.5970   58.9727   543.5334   190.7206    36.2494    48.5406   0    0  0 
70680.650000  82.70325   17.2963  233.5970   58.9726   541.0011   190.6869    36.2578    48.5362   0    0  0 
70680.950000  82.70400   17.2963  233.5970   58.9726   548.1903   190.3491    36.2532    48.5318   0    0  0 
70681.250000  82.70595   17.2964  233.5970   58.9727   553.1361   190.8232    36.2481    48.4618   0    0  0 
70681.550000  82.70640   17.2963  233.5970   58.9726   552.2304   193.3961    36.2747    48.4665   0    0  0 
70681.850000  82.70820   17.2964  233.5970   58.9727   549.6697   192.9894    36.3173    48.5245   0    0  0 
70682.150000  82.70895   17.2963  233.5970   58.9726   548.8942   191.1386    36.3076    48.5663   0    0  0 
70682.450000  82.71135   17.2960  233.5960   58.9727   549.3048   190.0378    36.3108    48.5533   0    0  0 
70682.750000  82.71195   17.2963  233.5970   58.9726   547.1741   188.0619    36.2997    48.5139   0    0  0 
70683.050000  82.71315   17.2963  233.5970   58.9726   541.3357   187.6405    36.2808    48.4982   0    0  0 
70683.350000  82.71435   17.2963  233.5970   58.9726   539.4948   187.0449    36.2636    48.5605   0    0  0 
70683.650000  82.71615   17.2963  233.5970   58.9726   539.1256   186.0004    36.2441    48.5439   0    0  0 
70683.950000  82.71690   17.2963  233.5970   58.9726   540.4252   185.6431    36.2409    48.4750   0    0  0 
70684.250000  82.71855   17.2964  233.5970   58.9727   542.2706   186.4567    36.1960    48.5035   0    0  1 
70684.550000  82.71960   17.2963  233.5970   58.9726   541.3378   187.9849    36.2541    48.5092   0    0  1 
70684.850000  82.72110   17.2963  233.5970   58.9726   538.7785   186.9313    36.1914    48.5470   0    0  1 
70685.150000  82.72155   17.2963  233.5970   58.9726   538.4255   187.0813    36.2655    48.4276   0    0  1 
70685.450000  82.72335   17.2963  233.5970   58.9726   531.8980   185.0068    36.2604    48.3768   0    0  1 
70685.750000  82.72470   17.2963  233.5970   58.9726   545.5651   185.2259    36.1828    48.3489   0    0  1 
70686.050000  82.86435   17.3360  233.4560   59.0898   569.7708   175.3764    35.7713    47.5516   0    0  1 
70686.350000  83.03355   17.3993  233.3020   59.2438   407.1896   170.6211    35.5540    46.0690   0    0  1 
70686.650000  83.17980   17.4580  233.1730   59.3799   269.8056   244.9457    36.0939    46.5690   0    0  1 
70686.950000  83.94180   17.6730  232.3680   60.0190   241.1955   215.9303    36.3584    48.1612   0    0  1 
70687.250000  84.30690   17.7057  231.8810   60.2703   220.7115   161.9730    35.6232    48.7165   0    0  1 
70687.550000  84.86355   17.7104  231.0670   60.6159   172.8974   186.6809    34.7223    47.5090   0    0  1 
70687.850000  85.08270   17.7058  230.7340   60.7458   136.1002   160.1893    34.3405    46.1680   0    0  1 
70688.150000  85.53420   17.6933  230.0360   61.0093   104.6039   109.4237    34.4207    45.5565   0    0  1 
70688.450000  85.81890   17.6840  229.5890   61.1729    86.1457   124.9920    34.4028    45.3476   0    0  1 
70688.750000  86.33400   17.6745  228.7790   61.4716   369.9811   396.0286    34.2654    45.6924   0    0  1 
70689.050000  86.85105   17.6737  227.9630   61.7746   730.2966   613.7221    34.3027    46.1341   0    0  1 
70689.350000  86.99055   17.6755  227.7430   61.8573   663.5185   448.4465    34.3667    46.2381   0    0  1 
70689.650000  87.29205   17.6807  227.2660   62.0359   415.7072   184.0458    34.6878    46.2715   0    0  1 
70689.950000  87.79860   17.6884  226.4510   62.3327   193.1615   172.7007    35.3588    46.5844   0    0  0 
70690.250000  88.00095   17.6902  226.1200   62.4490   178.2440   166.3677    35.4372    46.9942   0    0  0 
70690.550000  88.39605   17.6824  225.4530   62.6650   149.6770   163.0863    35.2352    46.9870   0    0  0 
70690.850000  88.48755   17.5526  225.1350   62.6102   146.9222   154.8072    35.1407    47.0099   0    0  0 
70691.150000  88.48335   17.5521  225.1430   62.6070   150.1589   151.3152    35.1527    46.9873   0    0  0 
70691.450000  88.37625   17.6066  225.3960   62.5901   167.4684   149.3267    35.3442    46.9514   0    0  0 
70691.750000  88.32975   17.6319  225.5080   62.5840   171.7679   150.6801    35.3862    47.0502   0    0  0 
70692.050000  88.32570   17.6324  225.5180   62.5812   174.4062   149.7021    35.3984    46.9227   0    1  1 
70692.350000  88.32480   17.6328  225.5220   62.5804   178.3218   149.3940    35.3678    46.7682   0    1  1 
70692.650000  88.32315   17.6327  225.5270   62.5785   183.2075   149.1451    35.3506    46.8068   0    1  1 
70692.950000  88.32345   17.6332  225.5290   62.5785   185.2912   148.2188    35.3639    46.8872   0    1  1 
70693.250000  88.32390   17.6330  225.5290   62.5783   183.8711   148.8007    35.3444    47.0002   0    1  1 
70693.550000  88.31865   17.6322  225.5400   62.5735   180.1685   148.1035    35.3691    46.9050   0    1  1 
70693.850000  88.18500   17.5816  225.7000   62.4568   151.5920   145.4866    35.2665    46.5661   0    1  1 
70694.150000  87.80925   17.4154  226.1120   62.1090   395.9966   138.4570    34.7061    46.3178   0    1  1 
70694.450000  87.09255   17.2128  227.0210   61.5349   789.7613   353.5397    34.1633    45.9353   0    1  1 
70694.750000  87.09240   17.2128  227.0210   61.5349   819.1251   496.6454    34.2268    45.8511   0    1  1 
70695.050000  86.46255   17.1605  227.9570   61.1260   453.4140   286.8215    34.1944    45.6257   0    1  1 
70695.350000  85.99680   17.1527  228.6750   60.8447   220.5870   108.8532    34.0669    45.7210   0    1  1 
70695.650000  85.85625   17.1570  228.8980   60.7645   176.5818   114.5983    34.2146    46.3217   0    1  1 
70695.950000  85.24800   17.1613  229.8330   60.4027   156.5603   159.5358    34.6806    46.4672   0    1  1 
70696.250000  84.93075   17.1727  230.3250   60.2192   240.1671   196.9072    35.2863    46.3695   0    1  1 
70696.550000  84.63630   17.1807  230.7740   60.0456   270.8078   222.3603    36.8652    46.1749   0    1  1 
70696.850000  84.24405   17.1979  231.3740   59.8175   235.7496   249.9800    37.3835    45.8362   0    1  1 
70697.150000  84.02190   17.2108  231.7150   59.6896   265.2919   147.2065    36.3045    45.6837   0    1  1 
70697.450000  83.39595   17.2388  232.6510   59.3202   398.0521   149.2208    35.7903    46.5325   0    1  1 
70697.750000  83.13990   17.2504  233.0290   59.1677   492.0549   191.6842    36.2138    48.0911   0    1  0 
70698.050000  82.57845   17.2778  233.8500   58.8318   364.8120   162.5928    36.3277    47.7584   0    1  0 
70698.350000  82.46025   17.3026  234.0460   58.7746   341.6821   132.2692    35.4708    46.4674   0    1  0 
70698.650000  82.35975   17.5697  234.5330   58.9080   370.6096   137.5282    34.6391    45.4683   0    1  0 
70698.950000  82.42485   17.7019  234.6180   59.0472   384.3568   142.7854    34.3013    45.2833   0    1  0 
70699.250000  82.54455   17.8426  234.6410   59.2271   379.8127   134.3760    34.2989    45.3205   0    1  0 
70699.550000  82.59885   17.9075  234.6530   59.3095   369.2221   129.0690    34.4046    45.3799   0    1  0 
70699.850000  82.63260   17.9484  234.6630   59.3603   355.6030   125.8835    34.4369    45.3367   0    1  0 
70700.150000  82.64745   17.9649  234.6670   59.3809   349.8139   124.3379    34.4600    45.4557   0    1  0 
70700.450000  82.65585   17.9721  234.6660   59.3911   345.3978   126.3054    34.5055    45.5363   0    2  1 
70700.750000  82.66305   17.9786  234.6670   59.3995   345.0547   124.8978    34.5370    45.4921   0    2  1 
70701.050000  82.66620   17.9808  234.6670   59.4024   342.8239   125.0125    34.5373    45.4632   0    2  1 
70701.350000  82.66710   17.9815  234.6680   59.4029   341.3859   124.3213    34.5409    45.4652   0    2  1 
70701.650000  82.66995   17.9813  234.6660   59.4036   339.5848   125.8644    34.5691    45.5503   0    2  1 
70701.950000  82.77660   18.0147  234.5650   59.4956   300.8860   135.1707    35.0141    45.2953   0    2  1 
70702.250000  82.82085   18.0295  234.5240   59.5346   267.1383   186.5640    36.1695    45.5744   0    2  1 
70702.550000  83.47185   18.2827  233.9510   60.1376   223.0502   157.3182    35.9757    46.7307   0    2  1 
70702.850000  83.65215   18.3241  233.7510   60.2827   155.2207   103.6004    34.9466    47.0533   0    2  1 
70703.150000  84.35745   18.3840  232.8150   60.7716   160.2063    96.2999    34.6335    47.8463   0    2  1 
70703.450000  84.68550   18.3814  232.3300   60.9743   210.0040    94.6575    34.7375    47.5618   0    2  1 
70703.750000  85.12545   18.3748  231.6670   61.2414   209.4406    98.9929    34.4984    46.1064   0    2  1 
70704.050000  85.43730   18.3672  231.1870   61.4271   146.2566    93.8478    34.6195    45.7294   0    2  1 
70704.350000  85.72170   18.3580  230.7420   61.5935    78.4410   124.0819    34.8762    45.9144   0    2  1 
70704.650000  86.16645   18.3479  230.0430   61.8548    86.2639   185.2517    34.7746    46.2165   0    2  1 
70704.950000  86.46990   18.3411  229.5600   62.0316   321.6522   419.1431    34.7074    46.5283   0    2  1 
70705.250000  86.88615   18.3387  228.8990   62.2772   689.0966   605.1253    34.9358    46.4370   0    2  1 
70705.550000  87.18660   18.3380  228.4170   62.4539   738.9092   441.6959    35.0431    46.2963   0    2  1 
70705.850000  87.61905   18.3363  227.7140   62.7052   453.0781   187.9056    35.2772    46.5050   0    2  1 
70706.150000  87.88905   18.3386  227.2740   62.8634   198.2182   282.2339    35.7039    47.3007   0    2  0 
70706.450000  88.02525   18.3402  227.0510   62.9431   223.0252   363.2489    35.6706    48.0741   0    2  0 
70706.750000  88.50630   18.2521  226.1310   63.1468   212.8776   318.7222    35.4761    47.7913   0    2  0 
70707.050000  88.51035   18.2129  226.0730   63.1173   197.8461   315.1884    35.4803    47.9766   0    2  0 
70707.350000  88.45170   18.2357  226.2060   63.1010   198.4041   340.2504    35.6590    47.8201   0    2  0 
70707.650000  88.40535   18.2612  226.3190   63.0947   189.6469   342.4785    35.7204    47.6568   0    2  0 
70707.950000  88.32885   18.3064  226.5110   63.0861   186.6186   333.9501    35.7401    47.6952   0    3  1 
70708.250000  88.32930   18.3066  226.5120   63.0861   182.5542   334.6049    35.7376    47.8390   0    3  1 
70708.550000  88.32405   18.3077  226.5250   63.0830   176.5944   331.6530    35.7657    47.8204   0    3  1 
70708.850000  88.32255   18.3083  226.5300   63.0821   172.6614   326.3382    35.7385    47.8245   0    3  1 
70709.150000  88.32330   18.3091  226.5330   63.0821   174.1332   324.9833    35.6967    47.7099   0    3  1 
70709.450000  88.32450   18.3091  226.5330   63.0821   169.4814   315.8471    35.7283    47.6607   0    3  1 
70709.750000  88.31850   18.3092  226.5440   63.0784   190.8835   264.8891    35.5561    47.2312   0    3  1 
70710.050000  87.95835   18.1657  226.9570   62.7558   424.0475   166.3584    35.0335    46.5900   0    3  1 
70710.350000  87.59115   18.0081  227.3540   62.4175   720.6896   517.4418    34.5235    46.5532   0    3  1 
70710.650000  87.41190   17.9575  227.5800   62.2729   612.7200   601.5199    34.4449    46.6667   0    3  1 
70710.950000  86.57265   17.8339  228.7640   61.6809   165.6762   264.6405    34.4056    46.0909   0    3  1 
70711.250000  86.33325   17.8294  229.1350   61.5346    84.3041   116.9076    34.5983    45.5511   0    3  1 
70711.550000  85.96740   17.8232  229.6970   61.3101   128.5285   115.3803    34.5047    45.5707   0    3  1 
70711.850000  85.65030   17.8255  230.1890   61.1197   161.6898   163.2117    34.3902    46.1727   0    3  1 
70712.150000  85.36200   17.8313  230.6360   60.9487   211.9850   138.5386    34.6554    47.9935   0    3  1 
70712.450000  84.90270   17.8475  231.3490   60.6789   197.0745   130.9055    35.2677    49.1079   0    3  1 
70712.750000  84.75525   17.8537  231.5770   60.5924   186.7110   178.0270    35.5975    48.3430   0    3  1 
70713.050000  83.96430   17.8846  232.7780   60.1220   225.5823   189.8331    35.5660    46.5867   0    3  1 
70713.350000  83.73915   17.8945  233.1160   59.9874   268.9171   232.5175    35.6055    45.5092   0    3  1 
70713.650000  83.25990   17.9157  233.8270   59.6989   342.5526   166.8260    35.2206    45.3702   0    3  1 
70713.950000  82.95135   17.9316  234.2820   59.5133   370.5825   123.5997    34.5513    45.5017   0    3  0 
70714.250000  82.39590   17.9656  235.0970   59.1804   348.7368    88.5120    34.7350    46.1181   0    3  0 
70714.550000  82.30440   18.0003  235.2690   59.1463   336.0080    85.3971    35.3465    47.0911   0    3  0 
70714.850000  82.29945   18.2571  235.6220   59.3300   304.9241    71.4235    35.9602    47.2128   0    3  0 
70715.150000  82.43190   18.4081  235.6460   59.5258   287.5624    64.9234    35.9850    46.6323   0    3  0 
70715.450000  82.52340   18.5099  235.6610   59.6585   276.5336    82.0449    35.6459    46.1302   0    3  0 
70715.750000  82.61880   18.6129  235.6730   59.7945   276.2585    96.1553    35.4564    45.9723   0    3  0 
70716.050000  82.63590   18.6278  235.6710   59.8159   277.7180   106.5301    35.3664    45.9141   0    3  0 
70716.350000  82.64145   18.6349  235.6740   59.8243   278.7777   112.1259    35.2557    45.7808   0    3  0 
70716.650000  82.65540   18.6481  235.6750   59.8419   279.0980   114.8382    35.2028    45.7152   0    4  1 
70716.950000  82.66305   18.6542  235.6750   59.8503   281.1125   116.8302    35.2065    45.7001   0    4  1 
70717.250000  82.66635   18.6557  235.6740   59.8528   279.7681   117.4810    35.1660    45.7651   0    4  1 
70717.550000  82.66860   18.6568  235.6740   59.8544   277.7899   116.7354    35.1542    45.5943   0    4  1 
70717.850000  82.67100   18.6570  235.6730   59.8551   277.8490   118.8415    35.1404    45.5768   0    4  1 
70718.150000  82.76940   18.6847  235.5780   59.9380   308.7703   193.9846    34.8693    45.3373   0    4  1 
70718.450000  82.76940   18.6847  235.5780   59.9380   312.2721   278.7851    34.6339    45.4515   0    4  1 
70718.750000  83.17530   18.8312  235.2170   60.3071   143.6752   143.2621    34.6562    45.7615   0    4  1 
70719.050000  83.97750   19.0400  234.3710   60.9755    97.9058   106.0333    34.5576    45.6066   0    4  1 
70719.350000  84.15315   19.0611  234.1480   61.1029   108.1882    93.2123    34.5234    45.5750   0    4  1 
70719.650000  84.51765   19.0942  233.6640   61.3590   132.7443    98.2116    35.1357    45.9568   0    4  1 
70719.950000  85.14000   19.0935  232.7430   61.7497    90.9112    94.5094    35.6384    47.2569   0    4  1 
70720.250000  85.43175   19.0897  232.2990   61.9287    62.7173    68.5654    35.2346    48.7271   0    4  1 
70720.550000  85.74030   19.0824  231.8200   62.1143    95.1339    78.7772    34.7859    48.8980   0    4  1 
70720.850000  86.25570   19.0678  231.0050   62.4195   138.5979   109.6288    34.8201    47.9982   0    4  1 
70721.150000  86.46420   19.0631  230.6730   62.5428   194.7722   158.8237    35.0339    47.2223   0    4  1 
70721.450000  86.60115   19.0589  230.4520   62.6226   430.8057   268.0934    35.6385    46.5575   0    4  1 
70721.750000  87.32625   19.0413  229.2700   63.0444   526.3608   300.7057    35.9456    46.6667   0    4  1 
70722.050000  87.46140   19.0398  229.0490   63.1235   574.1325   170.4253    35.8127    47.3009   0    4  1 
70722.350000  87.73245   19.0394  228.6060   63.2833   430.5304   181.0206    35.8403    48.3269   0    4  0 
70722.650000  88.29510   19.0465  227.6830   63.6181   274.2753   353.3312    36.1194    49.4414   0    4  0 
70722.950000  88.46850   19.0017  227.3300   63.6829   267.0382   402.1430    36.2363    49.6114   0    4  0 
70723.250000  88.48305   18.8848  227.1470   63.5975   254.7457   393.4391    36.2899    49.6195   0    4  0 
70723.550000  88.46175   18.9026  227.2090   63.5988   233.6368   351.0912    36.2191    49.3810   0    4  0 
70723.850000  88.33995   18.9734  227.5150   63.5834   232.8126   306.7034    36.1271    49.1732   0    4  0 
70724.150000  88.32825   18.9859  227.5540   63.5858   238.9867   293.8950    36.1326    49.1772   0    5  1 
70724.450000  88.32450   18.9851  227.5620   63.5820   248.5102   299.4202    36.0736    49.0856   0    5  1 
70724.750000  88.32390   18.9861  227.5660   63.5818   254.8162   296.5701    36.0857    49.1623   0    5  1 
70725.050000  88.32405   18.9865  227.5690   63.5813   258.3434   299.0409    36.0847    49.1730   0    5  1 
70725.350000  88.32420   18.9868  227.5710   63.5810   261.2105   298.8764    36.1038    49.2016   0    5  1 
70725.650000  88.31535   18.9844  227.5850   63.5731   298.9862   254.8351    36.0271    48.8620   0    5  1 
70725.950000  88.14420   18.9225  227.7880   63.4237   483.1365   181.9070    35.8509    47.6618   0    5  1 
70726.250000  87.59685   18.6912  228.3770   62.9196   640.1454   384.0408    35.7662    46.6425   0    5  1 
70726.550000  87.41385   18.6387  228.6040   62.7702   522.2640   486.7418    35.5804    46.4296   0    5  1 
70726.850000  86.88705   18.5514  229.3350   62.3879   197.8884   265.3078    35.2016    46.6258   0    5  1 
70727.150000  86.55645   18.5260  229.8260   62.1691    84.8606   134.0220    35.0871    46.7204   0    5  1 
70727.450000  86.11995   18.5211  230.5040   61.9002    94.4932   108.0825    35.1225    46.6361   0    5  1 
70727.750000  85.80885   18.5208  230.9850   61.7095   138.6220    90.7276    34.8765    46.3471   0    5  1 
70728.050000  85.26480   18.5219  231.8160   61.3741   188.7709    98.7923    34.9517    46.5474   0    5  1 
70728.350000  85.18950   18.5220  231.9300   61.3272   184.9695   100.3066    34.9730    47.2590   0    5  1 
70728.650000  84.56760   18.5308  232.8680   60.9446   125.1406   105.7269    34.6791    46.9927   0    5  1 
70728.950000  84.09000   18.5419  233.5810   60.6505   147.4443    97.5719    35.1009    47.0254   0    5  1 
70729.250000  83.94000   18.5470  233.8050   60.5587   246.9186   152.2148    36.2236    47.3490   0    5  1 
70729.550000  83.30970   18.5785  234.7470   60.1778   325.0639   229.9803    36.1123    46.5250   0    5  1 
70729.850000  83.23530   18.5837  234.8590   60.1335   303.8100   165.0339    35.4106    45.7387   0    5  1 
70730.150000  82.67730   18.6190  235.6850   59.7970   237.6763    97.0932    35.7843    46.5490   0    5  0 
70730.450000  82.32840   18.7042  236.2810   59.6302   192.2879   107.1350    35.6996    47.1231   0    5  0 
70730.750000  82.29720   18.7718  236.4170   59.6583   184.2714   111.1217    35.1695    47.1753   0    5  0 
70731.050000  82.44525   19.1029  236.6770   59.9931   189.9256    97.7416    35.2944    47.9794   0    5  0 
70731.350000  82.48920   19.1473  236.6800   60.0535   212.3007    89.3861    35.5038    48.9822   0    5  0 
70731.650000  82.58835   19.2545  236.6970   60.1948   227.3693    85.6493    35.6958    49.5942   0    5  0 
70731.950000  82.61895   19.2872  236.7030   60.2375   237.5575    83.8039    35.6897    49.7917   0    5  0 
70732.250000  82.64010   19.3101  236.7080   60.2671   239.6493    83.3718    35.7430    49.7857   0    5  0 
70732.550000  82.65270   19.3225  236.7100   60.2834   243.4065    83.9920    35.7673    49.9967   0    6  1 
70732.850000  82.65900   19.3280  236.7110   60.2906   246.6713    84.9916    35.7802    50.0718   0    6  1 
70733.150000  82.66560   19.3324  236.7110   60.2968   246.4161    84.3276    35.7782    50.0756   0    6  1 
70733.450000  82.66680   19.3329  236.7110   60.2974   242.5125    84.2351    35.7263    50.0733   0    6  1 
70733.750000  82.66875   19.3327  236.7090   60.2981   245.0437    84.5010    35.7171    50.0700   0    6  1 
70734.050000  82.68000   19.3343  236.6980   60.3057   270.9313    84.9764    35.6487    49.9879   0    6  1 
70734.350000  82.81365   19.3749  236.5730   60.4221   208.7264   134.8769    35.7017    49.1441   0    6  1 
70734.650000  83.27400   19.5436  236.1760   60.8445   134.1068   202.3670    35.9156    47.4922   0    6  1 
70734.950000  84.06600   19.7096  235.2940   61.4790   100.1222   121.0192    35.5699    46.4309   0    6  1 
70735.250000  84.24000   19.7306  235.0740   61.6065   103.6933    70.0195    35.2025    46.2592   0    6  1 
70735.550000  84.59745   19.7561  234.5920   61.8546   137.5512    78.6742    34.8730    46.3053   0    6  1 
70735.850000  85.04670   19.7387  233.9050   62.1280   104.7511   146.0560    34.4964    46.7608   0    6  1 
70736.150000  85.46295   19.7114  233.2430   62.3706    77.1742   116.7618    34.6548    47.1455   0    6  1 
70736.450000  85.76790   19.6965  232.7590   62.5507    97.4531    65.8229    34.9235    47.1594   0    6  1 
70736.750000  86.04540   19.6841  232.3160   62.7143   116.2653    66.2927    35.0312    46.9882   0    6  1 
70737.050000  86.48385   19.6707  231.6160   62.9752    87.5533   102.2885    35.2440    46.6941   0    6  1 
70737.350000  86.92275   19.6623  230.9110   63.2377   180.7198   112.3700    35.4695    46.7178   0    6  1 
70737.650000  87.06075   19.6615  230.6900   63.3209   349.1014   136.5257    35.5793    47.6001   0    6  1 
70737.950000  87.56865   19.6678  229.8790   63.6326   336.1760   171.1247    35.4853    48.0594   0    6  1 
70738.250000  87.93750   19.6772  229.2870   63.8604   356.2850   108.4347    35.2137    48.1735   0    6  0 
70738.550000  88.21050   19.6866  228.8470   64.0297   257.1087   141.4222    35.1490    48.3254   0    6  0 
70738.850000  88.54020   19.6843  228.2900   64.2220   257.1346   238.9025    35.2926    48.5135   0    6  0 
70739.150000  88.59600   19.5225  227.9670   64.1265   265.8786   273.3081    35.3691    48.7126   0    6  0 
70739.450000  88.57515   19.5219  228.0030   64.1133   254.0340   211.8300    35.3416    48.7337   0    6  0 
70739.750000  88.44885   19.5926  228.3210   64.0936   276.8836   109.1750    35.2307    48.6067   0    6  0 
70740.050000  88.35930   19.6462  228.5510   64.0820   300.0185    80.3848    35.2023    48.5241   0    6  0 
70740.350000  88.33365   19.6596  228.6160   64.0764   324.8178    78.2500    35.1819    48.4593   0    6  0 
70740.650000  88.32885   19.6597  228.6260   64.0730   334.9724    75.5005    35.1573    48.4237   0    7  1 
70740.950000  88.32435   19.6589  228.6350   64.0688   332.3724    76.0275    35.2014    48.5083   0    7  1 
70741.250000  88.32375   19.6597  228.6390   64.0685   326.1141    75.2628    35.2178    48.4950   0    7  1 
70741.550000  88.32375   19.6598  228.6400   64.0682   325.4251    74.5155    35.1582    48.4432   0    7  1 
70741.850000  88.32555   19.6603  228.6420   64.0682   334.8624    74.4100    35.1854    48.4743   0    7  1 
70742.150000  88.31685   19.6594  228.6560   64.0621   385.7399    81.7211    35.1710    48.4775   0    7  1 
70742.450000  87.93750   19.5197  229.0920   63.7269   391.0232   149.1387    35.3579    48.0919   0    7  1 
70742.750000  87.77610   19.4516  229.2620   63.5774   419.4211   201.5337    35.6453    47.2657   0    7  1 
70743.050000  87.18780   19.2755  229.9720   63.0871   229.5028   146.7990    35.3001    46.7011   0    7  1 
70743.350000  86.69490   19.1930  230.6440   62.7239   139.0590   118.1383    34.8536    47.2377   0    7  1 
70743.650000  86.44350   19.1784  231.0200   62.5587   103.1893    78.8545    34.6437    48.3654   0    7  1 
70743.950000  85.90710   19.1734  231.8480   62.2233    67.2277    70.6388    34.8724    48.9559   0    7  1 
70744.250000  85.75950   19.1713  232.0720   62.1298    91.3525    97.4523    35.3399    48.0729   0    7  1 
70744.550000  85.15095   19.1842  233.0130   61.7576   131.7472    98.7200    35.2118    46.7316   0    7  1 
70744.850000  85.00560   19.1901  233.2390   61.6700   119.5169    83.9432    34.5779    45.8896   0    7  1 
70745.150000  84.68625   19.1981  233.7240   61.4731   112.0162    97.3861    34.3835    45.8527   0    7  1 
70745.450000  84.05970   19.2202  234.6690   61.0879   114.3388   133.0068    34.6025    46.0797   0    7  1 
70745.750000  83.75790   19.2296  235.1150   60.8998   164.0142   181.9863    34.7709    47.1316   0    7  1 
70746.050000  83.42955   19.2474  235.6060   60.6993   250.9679   152.3517    34.9464    48.2868   0    7  1 
70746.350000  83.19825   19.2568  235.9440   60.5551   225.1908    93.4986    35.5707    49.5932   0    7  0 
70746.650000  82.49340   19.3052  236.9860   60.1258   164.8315   133.5837    36.7429    49.9415   0    7  0 
70746.950000  82.40580   19.3438  237.1600   60.0952   158.6777   136.9290    37.8022    50.4904   0    7  0 
70747.250000  82.39290   19.6838  237.6630   60.3275   201.2583   122.6991    37.4563    50.4301   0    7  0 
70747.550000  82.45965   19.7982  237.7380   60.4525   242.5073   131.3992    36.7349    50.2262   0    7  0 
70747.850000  82.58265   19.9247  237.7560   60.6227   250.3740   141.4776    36.4110    50.1198   0    7  0 
70748.150000  82.60785   19.9498  237.7590   60.6569   251.0078   142.2052    36.2390    49.8507   0    7  0 
70748.450000  82.63650   19.9831  237.7710   60.6981   249.7319   142.2582    36.2085    49.8663   0    7  0 
70748.750000  82.64415   19.9902  237.7720   60.7077   245.8182   141.3393    36.1809    49.9912   0    8  1 
70749.050000  82.65900   20.0036  237.7740   60.7257   246.8756   138.4311    36.1581    49.9707   0    8  1 
70749.350000  82.66050   20.0052  237.7750   60.7276   250.0136   140.2592    36.1362    49.9249   0    8  1 
70749.650000  82.66560   20.0086  237.7750   60.7323   255.6533   145.7295    36.0998    49.8928   0    8  1 
70749.950000  82.66815   20.0093  237.7740   60.7338   254.2439   151.0020    36.1214    49.8335   0    8  1 
70750.250000  82.72815   20.0248  237.7170   60.7836   206.6828   152.1801    36.0296    48.9760   0    8  1 
70750.550000  83.01150   20.1158  237.4630   61.0356   173.6479   157.1989    36.6042    47.9216   0    8  1 
70750.850000  83.50440   20.2872  237.0320   61.4829   177.1760   104.4174    37.1336    47.3072   0    8  1 
70751.150000  83.97930   20.3618  236.4730   61.8481   133.1902    90.0779    36.7059    47.1336   0    8  1 
70751.450000  84.34635   20.3941  235.9960   62.1109   133.2381   102.5738    37.2038    48.0327   0    8  1 
70751.750000  84.66240   20.4013  235.5490   62.3212   140.9172    91.7679    37.8584    49.0461   0    8  1 
70752.050000  85.13100   20.3917  234.8460   62.6162    96.9487   114.8369    38.3768    50.1693   0    8  1 
70752.350000  85.73325   20.3776  233.9220   62.9901    68.2977   137.8105    38.0973    50.9729   0    8  1 
70752.650000  85.87995   20.3776  233.6990   63.0830    60.9668   127.1641    37.1172    50.7660   0    8  1 
70752.950000  86.32890   20.3727  233.0010   63.3621    73.8732   151.7366    36.5318    49.4514   0    8  1 
70753.250000  86.63760   20.3720  232.5180   63.5545    91.3936   124.4450    36.2638    48.8276   0    8  1 
70753.550000  87.05895   20.3732  231.8530   63.8167   129.7351    96.2035    35.8913    49.3655   0    8  1 
70753.850000  87.36210   20.3783  231.3740   64.0072   123.4028   118.4849    35.6988    50.3748   0    8  1 
70754.150000  87.79905   20.3823  230.6690   64.2769   152.9592   113.6289    35.9398    51.0693   0    8  1 
70754.450000  88.00170   20.3850  230.3390   64.4017   210.2252   113.9113    36.0067    50.5623   0    8  0 
70754.750000  88.48575   20.3901  229.5380   64.6965   218.4924   122.2588    35.8902    49.3573   0    8  0 
70755.050000  88.59795   20.3296  229.2590   64.7163   221.1297   118.9206    35.7646    48.8221   0    8  0 
70755.350000  88.57230   20.2074  229.1230   64.6055   230.8575   112.2292    35.6570    48.8360   0    8  0 
70755.650000  88.55550   20.2098  229.1560   64.5970   251.0536   109.4481    35.7352    49.3000   0    8  0 
70755.950000  88.40700   20.2941  229.5360   64.5722   257.2335   109.7303    35.8762    49.9693   0    8  0 
70756.250000  88.34310   20.3324  229.7030   64.5626   244.7763   106.8502    35.9132    50.1513   0    8  0 
70756.550000  88.32795   20.3341  229.7340   64.5537   237.4297   105.9412    35.9078    50.1382   0    9  1 
70756.850000  88.32585   20.3360  229.7430   64.5530   230.7438   107.1748    35.8914    50.1781   0    9  1 
70757.150000  88.32315   20.3361  229.7490   64.5509   219.7748   103.9280    35.8967    50.1288   0    9  1 
70757.450000  88.32360   20.3364  229.7500   64.5510   213.5660   103.8872    35.8862    50.2055   0    9  1 
70757.750000  88.32330   20.3370  229.7540   64.5503   226.3496   104.2691    35.8727    50.2285   0    9  1 
70758.050000  88.32390   20.3366  229.7540   64.5498   245.5319   103.5253    35.8823    50.1388   0    9  1 
70758.350000  88.31775   20.3365  229.7660   64.5454   257.5489   106.5755    35.8147    50.1335   0    9  1 
70758.650000  87.93720   20.2020  230.2030   64.2113   274.3357   115.2395    35.5013    49.0767   0    9  1 
70758.950000  87.58590   20.0636  230.5770   63.8915   208.2724   105.5838    35.3901    47.7221   0    9  1 
70759.250000  87.00615   19.9247  231.3110   63.4301    93.7316    77.9435    35.2938    46.8248   0    9  1 
70759.550000  86.65275   19.8756  231.8010   63.1743    81.8086    64.5551    35.1129    46.9670   0    9  1 
70759.850000  86.20425   19.8538  232.4720   62.8780    72.1011    74.3655    35.0008    47.1418   0    9  1 
70760.150000  85.88670   19.8547  232.9640   62.6789    93.8918   119.2869    34.9284    47.1576   0    9  1 
70760.450000  85.74135   19.8556  233.1880   62.5876   121.5492   109.4897    34.8518    46.9059   0    9  1 
70760.750000  84.98280   19.8731  234.3560   62.1169   113.0293    69.5626    35.1418    46.4348   0    9  1 
70761.050000  84.73410   19.8776  234.7300   61.9602    89.7149    69.8892    35.2724    46.2978   0    9  1 
70761.350000  84.18075   19.8907  235.5550   61.6110   109.8513   126.6873    35.4279    46.2927   0    9  1 
70761.650000  84.02505   19.8937  235.7830   61.5116   120.0879   245.1524    35.7320    46.6151   0    9  1 
70761.950000  83.38755   19.9163  236.7190   61.1091   163.8601   195.5416    36.0015    47.6038   0    9  1 
70762.250000  83.23800   19.9273  236.9440   61.0181   217.1401   149.2766    36.1533    48.9184   0    9  1 
70762.550000  82.67370   19.9633  237.7740   60.6684   223.1451   123.4831    36.2275    49.9799   0    9  0 
70762.850000  82.45365   19.9838  238.1030   60.5355   185.4910   116.2773    36.1129    50.2300   0    9  0 
70763.150000  82.28670   20.1634  238.5910   60.5488   159.2076   128.7456    37.2244    51.6944   0    9  0 
70763.450000  82.36500   20.3671  238.7860   60.7431   151.3019   138.4627    39.2259    52.9984   0    9  0 
70763.750000  82.50075   20.5216  238.8340   60.9413   155.6943   136.9377    40.4101    53.7032   0    9  0 
70764.050000  82.55805   20.5795  238.8440   61.0196   160.4123   124.8696    41.0414    54.1329   0    9  0 
70764.350000  82.62270   20.6462  238.8590   61.1082   163.5750   123.5991    41.3295    54.3200   0    9  0 
70764.650000  82.64055   20.6608  238.8580   61.1298   165.7690   122.9152    41.4151    54.4036   0    9  0 
70764.950000  82.65360   20.6746  238.8630   61.1472   173.6423   123.7726    41.4294    54.4614   0   10  1 
70765.250000  82.66170   20.6811  238.8640   61.1561   178.0469   119.5663    41.5063    54.5158   0   10  1 
70765.550000  82.66485   20.6838  238.8650   61.1594   175.3225   117.8392    41.5267    54.5963   0   10  1 
70765.850000  82.66635   20.6838  238.8640   61.1600   173.6716   117.8692    41.5594    54.5917   0   10  1 
70766.150000  82.67070   20.6846  238.8620   61.1621   173.1361   117.1908    41.5403    54.6417   0   10  1 
70766.450000  82.73070   20.6990  238.8050   61.2112   194.5641   111.7273    41.5846    54.7421   0   10  1 
70766.750000  82.76970   20.7094  238.7680   61.2445   266.2742   114.2180    41.4585    55.3333   0   10  1 
70767.050000  83.28405   20.8764  238.3180   61.7054   237.3025   123.4913    40.6247    54.8202   0   10  1 
70767.350000  83.63205   20.9830  237.9980   62.0122   126.9105    99.7951    38.9796    51.6172   0   10  1 
70767.650000  84.31065   21.0685  237.1710   62.5223   117.6398    81.3940    38.0706    49.8583   0   10  1 
70767.950000  84.48210   21.0817  236.9460   62.6444   160.6876    86.1456    38.6010    49.2961   0   10  1 
70768.250000  85.11300   21.0767  236.0200   63.0538   131.5039   120.9820    38.8950    49.5335   0   10  1 
70768.550000  85.57200   21.0638  235.3180   63.3419    82.6664   138.0944    39.0012    50.0749   0   10  1 
70768.850000  85.71555   21.0599  235.0960   63.4316    69.1528   135.9330    39.5883    51.1286   0   10  1 
70769.150000  86.23575   21.0472  234.2840   63.7556    64.5769   115.3428    40.0236    52.6836   0   10  1 
70769.450000  86.59305   21.0444  233.7260   63.9804    56.4830   115.2713    39.6441    53.1160   0   10  1 
70769.750000  86.82570   21.0431  233.3590   64.1263    68.4804   134.6416    39.5029    54.0263   0   10  1 
70770.050000  87.33555   21.0412  232.5450   64.4443    84.1537   148.2870    39.5436    54.8262   0   10  1 
70770.350000  87.47370   21.0422  232.3240   64.5310    69.9303   216.2905    38.8956    54.4208   0   10  1 
70770.650000  87.74535   21.0412  231.8810   64.6985    67.4558   208.7365    38.0650    52.8988   0   10  0 
70770.950000  88.30890   21.0452  230.9560   65.0473   116.2855   145.9402    37.2467    51.2906   0   10  0 
70771.250000  88.48125   21.0030  230.6020   65.1199   165.4029   132.9203    36.6611    50.4984   0   11  1 
70771.550000  88.48920   20.9091  230.4450   65.0526   164.4704   128.5684    36.6039    50.6180   0   11  1 
70771.850000  88.47075   20.9117  230.4830   65.0423   124.6061   135.9316    36.9117    51.1417   0   11  1 
70772.150000  88.35105   20.9909  230.8100   65.0286    93.0934   145.6515    37.3336    51.5586   0   11  1 
70772.450000  88.33020   21.0110  230.8780   65.0305    88.1037   153.2618    37.3985    51.7209   0   11  1 
70772.750000  88.32855   21.0114  230.8830   65.0291    79.1797   166.4633    37.3651    51.9027   0   11  1 
70773.050000  88.18155   20.9734  231.0730   64.9093    64.3892   231.8877    37.3941    52.7716   0   11  1 
70773.350000  88.00995   20.9183  231.2740   64.7618    72.0592   219.6751    37.3720    52.9083   0   11  1 
70773.650000  87.45525   20.7288  231.8940   64.2756    80.5418   140.4528    37.4519    51.5310   0   11  1 
70773.950000  87.08580   20.6446  232.3610   63.9822    63.1936   145.3713    37.4602    51.1736   0   11  1 
70774.250000  86.48550   20.5648  233.1900   63.5451    53.1858   136.5420    37.6583    52.2742   0   11  1 
70774.550000  86.23920   20.5557  233.5600   63.3822    61.0278   139.7230    38.1389    52.4999   0   11  1 
70774.850000  85.94355   20.5532  234.0120   63.1918    95.4249   122.4565    38.3027    51.4048   0   11  1 
70775.150000  85.47060   20.5536  234.7310   62.8883   176.1592    89.6992    38.2644    50.1944   0   11  1 
70775.450000  84.92505   20.5610  235.5550   62.5399   155.1343   107.9738    38.2431    49.3864   0   11  1 
70775.750000  84.62580   20.5692  236.0060   62.3503   102.6323   105.7360    37.9916    48.2712   0   11  1 
70776.050000  84.07725   20.5911  236.8300   62.0050   128.1949    85.0079    38.5754    48.7222   0   11  1 
70776.350000  83.92215   20.5958  237.0580   61.9056   211.6904   100.0057    40.0889    50.8260   0   11  1 
70776.650000  83.28510   20.6256  237.9960   61.5023   260.7977   118.1081    40.4744    52.3773   0   11  1 
70776.950000  83.03265   20.6448  238.3730   61.3463   218.6116   115.6708    41.0059    54.0041   0   11  1 
70777.250000  82.64670   20.6709  238.9380   61.1042   206.9965   138.7145    41.8159    54.6101   0   11  0 
70777.550000  82.39635   20.6875  239.3000   60.9461   264.1997   143.1310    42.7168    54.7150   0   11  0 
70777.850000  82.26570   20.9052  239.8030   61.0064   294.4365   165.3566    43.3067    54.9450   0   11  0 
70778.150000  82.30365   20.9946  239.8880   61.0933   288.9144   199.1410    43.0405    56.0478   0   11  0 
70778.450000  82.50990   21.2173  239.9550   61.3849   257.5572   209.5009    42.5210    57.3900   0   11  0 
70778.750000  82.54665   21.2508  239.9580   61.4325   238.0847   214.4185    42.1355    58.0012   0   11  0 
70779.050000  82.62045   21.3226  239.9720   61.5307   222.0932   212.4496    41.9331    58.4006   0   11  0 
70779.350000  82.64310   21.3426  239.9750   61.5585   219.8050   214.8457    41.9508    58.6205   0   11  0 
70779.650000  82.65015   21.3477  239.9740   61.5664   223.7313   217.0787    41.8325    58.7471   0   12  1 
70779.950000  82.65960   21.3552  239.9750   61.5770   227.0966   217.9293    41.8438    58.6423   0   12  1 
70780.250000  82.66320   21.3580  239.9760   61.5806   227.8709   220.5013    41.7986    58.7236   0   12  1 
70780.550000  82.66890   21.3605  239.9750   61.5847   228.6248   223.2698    41.7804    58.6965   0   12  1 
70780.850000  82.66995   21.3601  239.9740   61.5846   234.0685   226.4482    41.8342    58.8772   0   12  1 
70781.150000  82.67070   21.3602  239.9740   61.5847   224.8363   223.2796    41.7185    59.3238   0   12  1 
70781.450000  82.73715   21.3745  239.9090   61.6388   208.4991   188.5772    42.5760    61.6100   0   12  1 
70781.750000  83.20725   21.5148  239.4920   62.0532   202.8834   181.4903    56.6816    79.3629   0   12  1 
70782.050000  83.51910   21.6128  239.2180   62.3313   180.8750   234.9421    59.4947    80.0769   0   12  1 
70782.350000  84.12630   21.7001  238.5100   62.7997   126.9641   120.1962    43.6842    56.5191   0   12  1 
70782.650000  84.47220   21.7287  238.0650   63.0505   119.8410    94.2684    41.0109    52.6128   0   12  1 
70782.950000  85.02630   21.7219  237.2550   63.4131    99.5114   113.1300    39.2363    51.1020   0   12  1 
70783.250000  85.56780   21.7081  236.4350   63.7590    96.4085   139.0145    38.3206    51.6102   0   12  1 
70783.550000  85.71135   21.7053  236.2160   63.8508   121.4961   114.7525    37.3945    52.3223   0   12  1 
70783.850000  86.16450   21.6955  235.5150   64.1382   100.7742   109.8251    37.1579    51.6986   0   12  1 
70784.150000  86.31060   21.6959  235.2920   64.2328   100.9861   117.9873    37.4376    51.1615   0   12  1 
70784.450000  86.89275   21.6848  234.3700   64.5982   102.2595    99.5006    37.6189    50.8541   0   12  1 
70784.750000  87.12465   21.6811  233.9980   64.7431    67.6843    97.5353    38.3986    51.3475   0   12  1 
70785.050000  87.62820   21.6782  233.1860   65.0590    75.0816    97.5545    39.5153    52.3462   0   12  1 
70785.350000  87.76740   21.6807  232.9640   65.1481    96.6801   153.6020    39.6508    52.5633   0   12  1 
70785.650000  88.33905   21.6916  232.0390   65.5122   138.7683   187.3235    39.4265    52.1168   0   12  0 
70785.950000  88.47510   21.6968  231.8200   65.6001   166.4896   181.1203    39.6545    51.8960   0   13  1 
70786.250000  88.65045   21.5641  231.3130   65.6076   151.5810   187.4015    39.5248    51.3930   0   13  1 
70786.550000  88.63095   21.5267  231.2870   65.5671   139.0767   194.5246    39.5206    51.5283   0   13  1 
70786.850000  88.55760   21.5449  231.4430   65.5347   130.6676   207.6111    39.5392    51.9707   0   13  1 
70787.150000  88.42245   21.6281  231.8070   65.5127   131.5578   204.5280    39.4572    52.1867   0   13  1 
70787.450000  88.33770   21.6838  232.0410   65.5010   110.1900   176.6859    39.6481    52.5577   0   13  1 
70787.750000  88.15245   21.6672  232.3250   65.3726    82.4671   121.3879    40.0876    53.2262   0   13  1 
70788.050000  87.43290   21.4879  233.2180   64.7872    81.3892   115.5258    39.8013    52.6874   0   13  1 
70788.350000  87.06420   21.3975  233.6660   64.4868    86.7227   110.2035    39.6528    52.1130   0   13  1 
70788.650000  86.70150   21.3415  234.1510   64.2144    65.4063   118.5621    40.0349    51.6011   0   13  1 
70788.950000  86.14005   21.3134  234.9790   63.8325    67.2389   111.5897    39.0459    50.2456   0   13  1 
70789.250000  85.91445   21.3101  235.3190   63.6838    76.0044   131.1126    38.0097    49.2132   0   13  1 
70789.550000  85.59210   21.3104  235.8070   63.4740   108.6083   108.3130    37.5628    49.0159   0   13  1 
70789.850000  85.14675   21.3181  236.4830   63.1872   157.3958    91.3803    37.4346    49.4464   0   13  1 
70790.150000  84.67635   21.3365  237.2000   62.8892   140.7259    90.4401    37.7191    50.8317   0   13  1 
70790.450000  84.35100   21.3495  237.6890   62.6818   122.0654   138.5777    39.1722    52.1901   0   13  1 
70790.750000  83.90760   21.3787  238.3640   62.4051   173.6209   184.0652    43.9614    58.8259   0   13  1 
70791.050000  83.65560   21.3950  238.7420   62.2467   204.3333   147.7437    44.8587    63.1390   0   13  1 
70791.350000  83.10375   21.4344  239.5640   61.8997   197.8993   200.6516    42.0115    60.8981   0   13  1 
70791.650000  82.95285   21.4477  239.7900   61.8060   200.3505   197.2046    40.3456    56.4795   0   13  0 
70791.950000  82.64610   21.4738  240.2440   61.6139   196.7529   168.8131    39.5095    52.8483   0   13  0 
70792.250000  82.20060   21.5929  241.0210   61.3877   188.8689   159.8048    38.7989    52.6008   0   13  0 
70792.550000  82.23750   21.7377  241.1990   61.5099   179.4196   167.1984    39.1749    54.4390   0   13  0 
70792.850000  82.44210   21.8971  241.1820   61.7569   188.0029   179.3641    39.7435    56.0269   0   13  0 
70793.150000  82.50285   21.9144  241.1300   61.8098   203.0308   187.3149    40.2680    57.0574   0   13  0 
70793.450000  82.61535   21.9989  241.1170   61.9428   214.8291   186.8925    40.6249    57.6273   0   13  0 
70793.750000  82.64295   22.0161  241.1100   61.9722   217.3841   185.5889    40.6750    57.8255   0   13  0 
70794.050000  82.64985   22.0230  241.1130   61.9809   222.4954   178.7079    40.7957    57.8900   0   14  1 
70794.350000  82.66230   22.0289  241.1080   61.9923   225.4398   181.4998    40.8586    58.0098   0   14  1 
70794.650000  82.66875   22.0316  241.1050   61.9979   224.1576   182.2951    40.8775    58.1085   0   14  1 
70794.950000  82.67295   22.0332  241.1040   62.0008   221.0016   182.9941    40.9368    58.1521   0   14  1 
70795.250000  82.67235   22.0335  241.1060   62.0003   220.7148   187.2727    40.8877    58.1587   0   14  1 
70795.550000  82.67415   22.0335  241.1060   62.0003   230.0452   186.6734    41.2837    58.7211   0   14  1 
70795.850000  82.78290   22.0569  241.0000   62.0901   257.1415   193.7140    47.5061    67.2079   0   14  1 
70796.150000  82.88310   22.0815  240.9060   62.1752   194.9100   213.0774    74.1267   104.2084   0   14  1 
70796.450000  83.63370   22.2959  240.2360   62.8329   155.9785   200.7826    70.7283   101.9688   0   14  1 
70796.750000  83.83515   22.3252  240.0070   62.9896   111.7520   171.9644    49.3283    68.3532   0   14  1 
70797.050000  84.58650   22.3972  239.0720   63.5472   121.5799   230.4778    46.7711    62.4901   0   14  1 
70797.350000  84.84795   22.3981  238.7000   63.7235   164.8675   239.7214    44.3724    59.2837   0   14  1 
70797.650000  85.39410   22.3863  237.8880   64.0798   186.4898   139.6526    42.8920    57.0927   0   14  1 
70797.950000  85.54305   22.3854  237.6670   64.1781   142.6898   115.8404    41.1789    56.1691   0   14  1 
70798.250000  86.15265   22.3759  236.7400   64.5734   127.7003   112.6036    39.2804    55.1421   0   14  1 
70798.550000  86.29170   22.3694  236.5180   64.6599    94.5858   113.1596    37.6439    53.9068   0   14  1 
70798.850000  86.88705   22.3683  235.5980   65.0467    79.3524   118.9543    37.5707    53.9775   0   14  1 
70799.150000  87.33690   22.3715  234.8940   65.3390   104.1676    97.1880    37.2525    53.2534   0   14  1 
70799.450000  87.47940   22.3755  234.6730   65.4333    93.0738    74.9660    36.6729    51.7025   0   14  1 
70799.750000  87.91935   22.3791  233.9680   65.7164   107.0495    80.7137    36.5467    51.1139   0   14  0 
70800.050000  88.19130   22.3805  233.5240   65.8895   138.3031    99.8756    36.6486    51.1586   0   14  0 
70800.350000  88.58925   22.3790  232.8590   66.1384   172.4493   110.8861    37.0031    51.5041   0   14  0 
70800.650000  88.66650   22.3056  232.6070   66.1320   204.7796   115.1179    37.5415    51.8577   0   14  0 
70800.950000  88.60530   22.2001  232.5370   66.0146   199.8401   121.1353    37.4134    51.7902   0   14  0 
70801.250000  88.54650   22.2277  232.6840   65.9976   162.8424   107.5899    36.8009    51.4514   0   14  0 
70801.550000  88.37460   22.3399  233.1630   65.9709   140.6255    95.3132    36.6290    51.3084   0   14  0 
70801.850000  88.34310   22.3596  233.2500   65.9650   136.0388    90.6798    36.6088    51.2834   0   14  0 
70802.150000  88.33140   22.3619  233.2760   65.9583   138.2550    90.3357    36.6502    51.2883   0   15  1 
70802.450000  88.32705   22.3630  233.2870   65.9557   141.0333    90.2080    36.6276    51.3044   0   15  1 
70802.750000  88.32375   22.3636  233.2960   65.9531   140.4134    89.6570    36.5992    51.3003   0   15  1 
70803.050000  88.32480   22.3647  233.2970   65.9542   141.7744    93.9367    36.6236    51.3550   0   15  1 
70803.350000  88.32570   22.3654  233.3000   65.9540   139.2113    93.4092    36.6096    51.2956   0   15  1 
70803.650000  88.19160   22.3304  233.4670   65.8425   117.3404    89.4952    36.5869    51.5456   0   15  1 
70803.950000  88.14285   22.3150  233.5220   65.8002    79.4294    74.1467    36.5037    52.0879   0   15  1 
70804.250000  87.46500   22.0870  234.2510   65.2015    77.8954    75.3541    36.5348    52.5547   0   15  1 
70804.550000  87.06075   22.0063  234.7640   64.8832    90.8330    88.8157    36.8391    53.4417   0   15  1 
70804.850000  86.72925   21.9581  235.2070   64.6340   136.9719    80.2132    37.3396    54.7631   0   15  1 
70805.150000  86.24970   21.9418  235.9230   64.3099   169.6178   137.2236    39.2652    56.6500   0   15  1 
70805.450000  85.92615   21.9400  236.4130   64.0963   157.6203   138.3387    40.5848    55.7067   0   15  1 
70805.750000  85.62990   21.9413  236.8610   63.9016   148.6816   113.8322    40.9510    53.3583   0   15  1 
70806.050000  85.16475   21.9591  237.5790   63.6052   123.7605   126.1342    41.9898    53.4435   0   15  1 
70806.350000  84.87285   21.9729  238.0270   63.4196   128.2708   128.6364    44.1563    55.6898   0   15  1 
70806.650000  84.54540   21.9861  238.5200   63.2088   176.8247   212.8779    61.0531    82.5047   0   15  1 
70806.950000  83.91330   22.0123  239.4550   62.7991   182.5058   284.5214    92.2501   130.3312   0   15  1 
70807.250000  83.59860   22.0228  239.9080   62.5919   200.0870   240.9190    80.9701   115.0585   0   15  1 
70807.550000  83.33655   22.0346  240.2860   62.4205   248.7965   196.7109    51.0374    72.7144   0   15  1 
70807.850000  82.77180   22.0738  241.1100   62.0582   175.8432   175.9848    42.0429    58.9404   0   15  0 
70808.150000  82.31280   22.1129  241.7790   61.7660   129.8726   143.3660    42.5606    58.9592   0   15  0 
70808.450000  82.18830   22.1771  242.0440   61.7217   118.8066   135.9318    41.9256    58.7972   0   15  0 
70808.750000  82.29435   22.4226  242.3010   61.9565   115.6705   152.8040    40.8021    56.6820   0   15  0 
70809.050000  82.36920   22.4802  242.2970   62.0462   141.5501   168.1500    39.6925    54.3551   0   15  0 
70809.350000  82.53330   22.6103  242.2960   62.2449   173.0844   174.0232    39.3073    53.3521   0   15  0 
70809.650000  82.58610   22.6484  242.2900   62.3061   193.4118   178.6989    39.0467    52.7412   0   15  0 
70809.950000  82.63815   22.6892  242.2910   62.3678   196.4607   180.4162    38.9817    52.6797   0   15  0 
70810.250000  82.64130   22.6914  242.2910   62.3711   202.2970   185.3117    38.9101    52.4912   0   16  1 
70810.550000  82.66110   22.7043  242.2890   62.3919   206.0920   188.0288    38.8628    52.4160   0   16  1 
70810.850000  82.66425   22.7064  242.2890   62.3951   206.9924   186.1445    38.8742    52.4337   0   16  1 
70811.150000  82.66995   22.7093  242.2880   62.3999   205.0297   185.9036    38.8654    52.3214   0   16  1 
70811.450000  82.67235   22.7102  242.2880   62.4013   207.2383   183.8513    38.8697    52.1749   0   16  1 
70811.750000  82.74225   22.7254  242.2230   62.4590   234.4296   179.8629    38.7996    51.9403   0   16  1 
70812.050000  82.94910   22.7790  242.0390   62.6375   185.9091   126.4855    38.7697    51.3549   0   16  1 
70812.350000  83.42415   22.9189  241.6370   63.0586   151.6529   121.8002    39.7063    50.5142   0   16  1 
70812.650000  83.83290   22.9953  241.2110   63.3910   106.7748   146.7287    40.4672    52.8690   0   16  1 
70812.950000  84.55710   23.0350  240.2750   63.9133    68.9342   108.1716    40.5243    55.4040   0   16  1 
70813.250000  84.88320   23.0243  239.7960   64.1277    62.6113   120.7646    40.9437    55.2830   0   16  1 
70813.550000  85.18725   23.0159  239.3460   64.3277    76.6136   143.4056    41.9586    55.2092   0   16  1 
70813.850000  85.71990   22.9980  238.5390   64.6734   105.1290   130.5122    42.5183    55.3020   0   16  1 
70814.150000  86.10690   22.9873  237.9450   64.9242    93.3989   152.5830    41.9698    53.9940   0   16  1 
70814.450000  86.24730   22.9809  237.7230   65.0130    96.4719   137.9113    40.8063    52.3461   0   16  1 
70814.750000  86.69715   22.9710  237.0210   65.3033    99.5203   109.7045    40.2929    52.2598   0   16  1 
70815.050000  86.97795   22.9636  236.5740   65.4825   102.3936   113.9578    40.0505    52.6636   0   16  1 
70815.350000  87.41460   22.9566  235.8760   65.7622    93.6892   120.8152    39.1859    52.0223   0   16  1 
70815.650000  87.84975   22.9523  235.1720   66.0405    95.1108   111.3845    37.7891    50.5706   0   16  1 
70815.950000  88.12515   22.9551  234.7290   66.2194    82.9575   104.7610    37.2529    49.8387   0   16  0 
70816.250000  88.42605   22.9642  234.2490   66.4182    77.2049   123.5542    36.8476    49.3290   0    0  0 
70816.550000  88.56345   22.9678  234.0270   66.5081    77.3859   119.0632    36.6960    49.1868   0    0  0 
70816.850000  88.56345   22.9678  234.0270   66.5081    75.9154   112.7638    36.6142    49.2417   0    0  0 
70817.150000  88.74810   22.8674  233.5450   66.5514    76.8885   112.1323    36.5485    49.2741   0    0  0 
70817.450000  88.74810   22.8674  233.5450   66.5514    77.1867   112.9843    36.5711    49.2527   0    0  0 
70817.750000  88.74810   22.8674  233.5450   66.5514    85.5470   120.9287    43.7363    57.1437  -1    0  0 
70818.050000  88.71195   22.8008  233.4930   66.4791    86.1530   125.8750    45.7749    59.4526   1    0  0 
70818.350000  88.70325   22.8112  233.5360   66.4772    86.1582   124.6748    45.8116    59.4301   1    0  0 
70818.650000  88.70595   22.8125  233.5370   66.4786    85.4055   123.7538    45.7916    59.3971   1    0  0 
70818.950000  88.70505   22.8108  233.5370   66.4763    85.1332   122.9170    45.8241    59.4491   1    0  0 
70819.250000  88.70835   22.8133  233.5390   66.4790    85.3826   121.8582    45.8187    59.3823   1    0  0 
70819.550000  88.70760   22.8118  233.5390   66.4770    84.4371   121.9311    45.8178    59.3490   1    0  0 
70819.850000  88.70955   22.8126  233.5390   66.4781    85.3301   119.6143    45.8073    59.4085   1    0  0 
70820.150000  88.71015   22.8131  233.5400   66.4784    81.9914   117.0433    41.5214    54.6750  -1    0  0 
70820.450000  88.71060   22.8118  233.5400   66.4766    78.4489   114.5551    37.6437    50.4217  -1    0  0 
70820.750000  88.71225   22.8133  233.5410   66.4783    77.4491   113.3375    36.5473    49.1792   0    0  0 
70821.050000  88.71405   22.8133  233.5410   66.4783    77.6402   114.8780    36.5804    49.2082   0    0  0 
70821.350000  88.71495   22.8128  233.5400   66.4779    78.0295   113.0172    36.5576    49.2047   0    0  0 
70821.650000  88.71705   22.8131  233.5400   66.4783    77.2449   110.9312    36.5450    49.2474   0    0  0 
70821.950000  88.71630   22.8122  233.5410   66.4767    74.4717   107.2487    36.5608    49.1987   0    0  0 
70822.250000  88.71870   22.8128  233.5410   66.4776    71.0999   108.1988    36.5631    49.2074   0    0  0 
70822.550000  88.71960   22.8129  233.5410   66.4776    70.5634   108.1879    36.4815    49.2761   0    0  0 
70822.850000  88.72065   22.8124  233.5410   66.4770    72.5144   108.6314    36.5281    49.2062   0    0  0 
70823.150000  88.72230   22.8129  233.5410   66.4777    74.9595   110.5286    36.5264    49.2411   0    0  0 
70823.450000  88.72350   22.8127  233.5410   66.4774    76.4169   110.9391    36.5726    49.2651   0    0  0 
