#     FILENAME=Skynet_60335_crab_108895_58585.A.cal.txt
#     BASENAME=Skynet_60335_crab_108895_58585
#      CONTROL=SKYNET
#     PROJCODE=Skynet_60335_crab_108895
#     DATAROOT=/raid/scratch/cyborg/SkynetData
#      DATADIR=/raid/scratch/cyborg
#     DATADIR2=/raid/scratch/cyborg/SkynetData/Skynet_60335_crab_108895/Cyborg
#     SCANNAME=2019_06_26_10
#     SRC_NAME=crab
#     OBSERVER=tomanm27_55532
#     DATE_OBS=2024-01-27T00:06:35.050
#        OBSID=108895
#      SCANNUM=58585
#          MJD=60336.0045723
#          UTC=00395
#     SCANTYPE=ralongmap
#     DATAMODE=LOWRES
#     RECEIVER=Rx1_2
#      OBSFREQ=1395.0000
#    LO1Tuning=7000.0000
#     RFFILTER=1355_1435
#        OBSBW=-500.0000
#     EFFBANDW=80.0000
#        NCHAN=1024
#    STARTCHAN=747
#     STOPCHAN=911
#         TINT=0.5033
#         TBIN=0.00419430
#       ACCLEN=2048 
#     DURATION=574.72
#     EXPOSURE=502.31
#        FOCUS=37.005
#       RA,DEC=05:25:15.46, 19:45:41.29
#      RA(deg)=83.62942
#     DEC(deg)=22.01537
#   WIDTH(deg)=4.9201x4.6274
#    AZIM(deg)=107.8052
#    ELEV(deg)=55.5962
#     COORDREF=RA_DEC_
#         HREF=83.6283
#         VREF=22.0147
#      RADESYS=FK5
#       OFFSYS=AZEL
#      EQUINOX=2000.00
#     IFATTENS=9.00, 10.00
#   BALANCELEV=1.200 
#   POWER_XLYR=[0.82, 0.68] 
#       VELDEF=RADI-OBS 
#     VELOCITY=0.000 
#         NPOL=2 
#      POLMODE=Linear 
#      POLTYPE=XXYY 
#      WARNING=None 
#     NOISECAL=HI 
#       PRECAL=3 
#      POSTCAL=3 
#     CRYOTEMP=290 
#      BOXTEMP=23 
#         TSYS=YY1:148.51, XX1:127.22
#         TCAL=YY1:9.92, XX1:9.15
# Calibrated Continuum 
#                
#UTC_Time(s)    Ra(hr)  Dec(deg)   Az(deg)   El(deg)        YY1        XX1 Cal   Sweeps 
 395.050000   5.42127   19.7615  112.0750   55.0364   147.6292   131.3118  -1    0  0 
 395.150663   5.42130   19.7615  112.0750   55.0364   156.7911   139.6446   1    0  0 
 395.251326   5.42139   19.7615  112.0750   55.0364   158.1335   140.6904   1    0  0 
 395.351990   5.42142   19.7615  112.0750   55.0364   158.0752   140.5002   1    0  0 
 395.452653   5.42145   19.7615  112.0750   55.0364   157.9380   140.7712   1    0  0 
 395.553316   5.42143   19.7615  112.0750   55.0364   157.9590   140.8252   1    0  0 
 395.653979   5.42146   19.7615  112.0750   55.0364   157.9601   140.7158   1    0  0 
 395.754642   5.42149   19.7615  112.0750   55.0364   157.8446   140.7017   1    0  0 
 395.855305   5.42152   19.7615  112.0750   55.0364   157.9106   140.7264   1    0  0 
 395.955969   5.42153   19.7615  112.0750   55.0364   157.6890   140.6574   1    0  0 
 396.056632   5.42155   19.7615  112.0750   55.0364   157.9453   140.6746   1    0  0 
 396.157295   5.42158   19.7615  112.0750   55.0364   157.7284   140.7840   1    0  0 
 396.257958   5.42161   19.7615  112.0750   55.0364   157.7427   140.7303   1    0  0 
 396.358621   5.42170   19.7615  112.0750   55.0364   157.7879   140.7656   1    0  0 
 396.459285   5.42169   19.7615  112.0750   55.0364   157.8384   140.8167   1    0  0 
 396.559948   5.42172   19.7615  112.0750   55.0364   157.8211   140.7172   1    0  0 
 396.660611   5.42174   19.7615  112.0750   55.0364   157.7840   140.5124   1    0  0 
 396.761275   5.42177   19.7615  112.0750   55.0364   157.8647   140.4423   1    0  0 
 396.861937   5.42172   19.7621  112.0750   55.0370   157.8637   140.5910   1    0  0 
 396.962601   5.42174   19.7622  112.0750   55.0371   157.9296   140.5755   1    0  0 
 397.063264   5.42176   19.7622  112.0750   55.0371   157.8863   140.6549   1    0  0 
 397.163927   5.42192   19.7609  112.0750   55.0358   158.0412   140.6710   1    0  0 
 397.264590   5.42189   19.7615  112.0750   55.0364   157.9747   140.8399   1    0  0 
 397.365254   5.42191   19.7615  112.0750   55.0364   157.8660   140.6123   1    0  0 
 397.465916   5.42194   19.7615  112.0750   55.0364   157.5928   140.6734   1    0  0 
 397.566580   5.42199   19.7615  112.0750   55.0364   157.6354   140.7994   1    0  0 
 397.667243   5.42201   19.7615  112.0750   55.0364   157.8485   140.6334   1    0  0 
 397.767906   5.42204   19.7615  112.0750   55.0364   157.7607   140.5994   1    0  0 
 397.868570   5.42207   19.7615  112.0750   55.0364   158.0240   140.5485   1    0  0 
 397.969233   5.42215   19.7615  112.0750   55.0364   157.9589   140.6554   1    0  0 
 398.069896   5.42214   19.7615  112.0750   55.0364   158.0323   140.6359   1    0  0 
 398.170559   5.42216   19.7615  112.0750   55.0364   147.6536   131.3818   1    0  0 
 398.271222   5.42219   19.7615  112.0750   55.0364   147.4489   131.3210  -1    0  0 
 398.371886   5.42216   19.7615  112.0750   55.0364   147.4898   131.1982   0    0  0 
 398.472549   5.42224   19.7618  112.0750   55.0367   147.6400   131.2405   0    0  0 
 398.573212   5.42227   19.7618  112.0750   55.0367   147.6209   131.1810   0    0  0 
 398.673875   5.42230   19.7618  112.0750   55.0367   147.6047   131.2498   0    0  0 
 398.774538   5.42233   19.7612  112.0750   55.0361   147.7826   131.1187   0    0  0 
 398.875201   5.42235   19.7611  112.0750   55.0360   147.5762   131.1308   0    0  0 
 398.975865   5.42238   19.7611  112.0750   55.0360   147.6271   131.1742   0    0  0 
 399.076528   5.42241   19.7610  112.0750   55.0359   147.5397   131.1723   0    0  0 
 399.177191   5.42248   19.7615  112.0750   55.0364   147.6183   131.1997   0    0  0 
 399.277854   5.42252   19.7615  112.0750   55.0364   147.8806   131.1704   0    0  0 
 399.378517   5.42255   19.7615  112.0750   55.0364   147.6404   131.1797   0    0  0 
 399.479181   5.42184   19.7615  112.0855   55.0427   147.7168   131.2148   0    0  0 
 399.579844   5.39914   19.6759  112.5601   55.2370   147.7326   131.2800   0    0  0 
 399.680507   5.39740   19.6694  112.5967   55.2521   147.7034   131.2485   0    0  0 
 399.781171   5.39566   19.6629  112.6333   55.2673   147.7878   131.2928   0    0  0 
 399.881833   5.40506   19.7631  112.3512   55.2281   147.6825   131.1589   0    0  0 
 399.982497   5.41468   19.7805  112.1754   55.1358   147.6966   131.2454   0    0  0 
 400.083160   5.41457   19.7831  112.1742   55.1389   147.5506   131.2804   0    0  0 
 400.183823   5.41446   19.7856  112.1730   55.1421   147.5668   131.2797   0    0  0 
 400.284486   5.41180   19.7583  112.2522   55.1524   147.5019   131.2100   0    0  0 
 400.385150   5.41393   19.8188  112.1386   55.1698   147.5767   131.2583   0    0  0 
 400.485812   5.41382   19.8239  112.1340   55.1746   147.5341   131.4025   0    0  0 
 400.586476   5.41371   19.8291  112.1293   55.1794   147.6380   131.3411   0    0  0 
 400.687139   5.41406   19.7486  112.2312   55.1243   147.8226   131.2274   0    0  0 
 400.787802   5.41414   19.7688  112.2032   55.1357   147.7477   131.2151   0    0  0 
 400.888466   5.41407   19.7696  112.2036   55.1372   147.7605   131.3985   0    0  0 
 400.989129   5.41401   19.7703  112.2040   55.1386   147.8103   131.2817   0    0  0 
 401.089792   5.41490   19.7709  112.1902   55.1302   147.6482   131.2026   0    0  0 
 401.593108   5.41484   19.7644  112.2030   55.1288   147.7612   131.1445   0    0  0 
 402.096424   5.41549   19.7564  112.2046   55.1174   147.7001   131.2711   0    0  1 
 402.599740   5.41586   19.7609  112.1950   55.1181   147.5939   131.2249   0    0  1 
 403.103056   5.41601   19.7582  112.1986   55.1161   147.5378   131.1495   0    0  1 
 403.606372   5.41630   19.7619  112.1910   55.1167   147.5277   131.0421   0    0  1 
 404.109688   5.45997   19.7110  111.5733   54.6105   147.5125   131.0623   0    0  1 
 404.613004   5.48248   19.9045  110.9648   54.4898   147.3247   131.0944   0    0  1 
 405.116320   5.47483   19.7349  111.3183   54.4656   147.3072   131.1474   0    0  1 
 405.619636   5.48676   19.7594  111.1038   54.3524   147.3769   130.9801   0    0  1 
 406.122952   5.49680   19.7622  110.9487   54.2457   147.4997   131.0831   0    0  1 
 406.626268   5.50845   19.7515  110.7873   54.1126   147.4874   131.0876   0    0  1 
 407.129584   5.51900   19.7608  110.6172   54.0039   147.4020   131.1958   0    0  1 
 407.632900   5.53016   19.7618  110.4493   53.8836   147.5706   131.1300   0    0  1 
 408.136216   5.53985   19.7579  110.3109   53.7761   147.5125   131.1981   0    0  1 
 408.639532   5.55207   19.7650  110.1204   53.6471   147.7894   131.3892   0    0  1 
 409.142848   5.56124   19.7637  109.9881   53.5467   147.9432   131.4423   0    0  1 
 409.646164   5.57231   19.7616  109.8278   53.4249   148.0868   131.6762   0    0  1 
 410.149480   5.58238   19.7597  109.6837   53.3138   148.1209   131.6987   0    0  1 
 410.652796   5.59435   19.7615  109.5065   53.1838   148.0259   131.7273   0    0  1 
 411.156112   5.60402   19.7607  109.3691   53.0780   147.9419   131.4717   0    0  1 
 411.659428   5.61528   19.7609  109.2059   52.9548   147.8083   131.2941   0    0  1 
 412.162744   5.62550   19.7598  109.0610   52.8424   147.7506   131.1997   0    0  1 
 412.666060   5.63774   19.7637  108.8802   52.7099   147.5854   131.2101   0    0  1 
 413.169376   5.64729   19.7633  108.7455   52.6051   147.4473   131.0685   0    0  1 
 413.672692   5.65734   19.7645  108.6026   52.4960   147.3503   131.0168   0    0  1 
 414.176008   5.66867   19.7599  108.4480   52.3684   147.3020   131.0111   0    0  1 
 414.679324   5.67913   19.7608  108.2995   52.2538   147.1806   131.1333   0    0  1 
 415.182640   5.68996   19.7619  108.1472   52.1349   147.2261   131.2862   0    0  1 
 415.685956   5.70010   19.7608  108.0073   52.0227   147.1256   131.2440   0    0  1 
 416.189272   5.71126   19.7611  107.8520   51.9002   147.0752   131.1640   0    0  1 
 416.692588   5.72340   19.7622  107.6822   51.7661   147.1037   131.2301   0    0  1 
 417.195904   5.73340   19.7604  107.5474   51.6549   147.0655   131.3264   0    0  1 
 417.699220   5.74301   19.7638  107.4114   51.5508   147.0119   131.2525   0    0  1 
 418.202536   5.75419   19.7622  107.2610   51.4260   147.1980   131.2031   0    0  0 
 418.705852   5.76589   19.7630  107.1001   51.2968   147.3214   131.2538   0    0  0 
 419.209168   5.71757   19.9527  107.5287   51.9559   147.2740   131.2352   0    0  0 
 419.712484   5.72913   19.9569  107.3653   51.8303   147.2698   131.2859   0    0  0 
 420.215800   5.73286   19.9409  107.3358   51.7803   147.2782   131.2434   0    1  1 
 420.719116   5.73305   19.9306  107.3476   51.7729   147.2291   131.3807   0    1  1 
 421.222432   5.73423   19.9190  107.3485   51.7547   147.2375   131.4143   0    1  1 
 421.725748   5.73432   19.9244  107.3422   51.7587   147.2069   131.3906   0    1  1 
 422.229064   5.68323   19.8797  108.1152   52.3052   147.1106   131.4119   0    1  1 
 422.732380   5.67410   19.8116  108.3346   52.3666   147.1876   131.3752   0    1  1 
 423.235696   5.67414   19.9039  108.2193   52.4238   147.2628   131.3174   0    1  1 
 423.739012   5.65929   19.9578  108.3622   52.6242   147.1312   131.2992   0    1  1 
 424.242328   5.65277   19.9229  108.5038   52.6773   147.3159   131.2379   0    1  1 
 424.745644   5.64087   19.9148  108.6866   52.8062   147.2055   131.1413   0    1  1 
 425.248960   5.63226   19.9123  108.8170   52.9019   147.2755   131.1939   0    1  1 
 425.752276   5.61953   19.9142  108.9997   53.0462   147.2714   131.0661   0    1  1 
 426.255592   5.61049   19.9092  109.1417   53.1449   147.3486   131.1164   0    1  1 
 426.758908   5.59821   19.9131  109.3169   53.2850   147.6240   131.1530   0    1  1 
 427.262224   5.58912   19.9125  109.4537   53.3869   147.6764   131.2189   0    1  1 
 427.765540   5.57687   19.9084  109.6412   53.5216   147.7322   131.2411   0    1  1 
 428.268856   5.56776   19.9106  109.7767   53.6253   147.7062   131.1402   0    1  1 
 428.772172   5.55545   19.9138  109.9563   53.7647   147.5265   130.9959   0    1  1 
 429.275488   5.54491   19.9106  110.1212   53.8805   147.3444   130.9051   0    1  1 
 429.778804   5.53618   19.9135  110.2507   53.9805   147.1144   130.7974   0    1  1 
 430.282120   5.52338   19.9095  110.4512   54.1202   147.1287   130.8116   0    1  1 
 430.785436   5.51440   19.9113  110.5874   54.2217   147.1260   130.7735   0    1  1 
 431.288752   5.50203   19.9104  110.7783   54.3584   146.9788   130.9272   0    1  1 
 431.792068   5.49267   19.9125  110.9213   54.4640   146.9131   130.8260   0    1  1 
 432.295384   5.48056   19.9123  111.1098   54.5982   147.0005   130.7277   0    1  1 
 432.798700   5.47155   19.9123  111.2504   54.6983   146.8623   130.7840   0    1  1 
 433.302016   5.45965   19.9117  111.4382   54.8299   146.8247   130.6967   0    1  1 
 433.805332   5.45014   19.9110  111.5894   54.9347   146.8501   130.5994   0    1  1 
 434.308648   5.43781   19.9122  111.7837   55.0717   146.9273   130.7619   0    1  1 
 434.811964   5.42853   19.9105  111.9342   55.1731   146.9790   130.8147   0    1  1 
 435.315280   5.41815   19.9101  112.0997   55.2874   146.8951   130.9657   0    1  1 
 435.818596   5.40724   19.9096  112.2770   55.4073   147.0019   131.1045   0    1  1 
 436.321912   5.39579   19.9133  112.4574   55.5353   147.1013   130.9658   0    1  0 
 436.825228   5.38483   19.9145  112.6329   55.6566   146.9353   131.0154   0    1  0 
 437.328544   5.42690   19.8264  112.0836   55.1452   147.1184   131.1318   0    1  0 
 437.831860   5.42060   20.1135  111.7974   55.3980   147.0747   131.2391   0    1  0 
 438.335176   5.41479   20.0730  111.9463   55.4365   147.1620   131.1737   0    2  1 
 438.838492   5.41535   20.0711  111.9429   55.4312   147.0013   131.1140   0    2  1 
 439.341808   5.41523   20.0699  111.9481   55.4330   147.0539   131.2097   0    2  1 
 439.845124   5.41511   20.0704  111.9510   55.4360   147.0935   131.0027   0    2  1 
 440.348440   5.45759   20.0039  111.3741   54.9323   147.1249   131.0138   0    2  1 
 440.851756   5.48325   20.2291  110.6701   54.7967   147.0215   131.1152   0    2  1 
 441.355072   5.47487   20.0390  111.0654   54.7678   147.0286   131.0793   0    2  1 
 441.858388   5.48673   20.0508  110.8689   54.6475   147.0266   131.0704   0    2  1 
 442.361704   5.49628   20.0663  110.7043   54.5536   146.9857   131.0580   0    2  1 
 442.865020   5.50858   20.0536  110.5348   54.4120   147.0487   130.9945   0    2  1 
 443.368336   5.51767   20.0564  110.3965   54.3151   147.1652   131.0186   0    2  1 
 443.871652   5.52856   20.0629  110.2250   54.2009   147.0993   131.1751   0    2  1 
 444.374968   5.53885   20.0647  110.0696   54.0898   147.1528   130.9925   0    2  1 
 444.878284   5.55129   20.0623  109.8878   53.9529   147.0817   131.0286   0    2  1 
 445.381600   5.56150   20.0622  109.7385   53.8412   147.1773   131.0312   0    2  1 
 445.884916   5.57106   20.0612  109.5999   53.7364   147.2511   130.9247   0    2  1 
 446.388232   5.58343   20.0608  109.4201   53.6008   147.3157   130.9253   0    2  1 
 446.891548   5.59262   20.0605  109.2869   53.5003   147.2336   130.9863   0    2  1 
 447.394864   5.60438   20.0616  109.1153   53.3721   147.1286   131.1421   0    2  1 
 447.898180   5.61363   20.0600  108.9838   53.2700   147.0173   131.0137   0    2  1 
 448.401496   5.62594   20.0638  108.8029   53.1373   146.9389   130.9988   0    2  1 
 448.904812   5.63522   20.0627  108.6714   53.0347   146.9574   130.9527   0    2  1 
 449.408128   5.64780   20.0642  108.4904   52.8970   146.9433   131.0593   0    2  1 
 449.911444   5.65646   20.0635  108.3697   52.8015   146.8621   130.9493   0    2  1 
 450.414760   5.66918   20.0609  108.1930   52.6600   146.8645   131.1074   0    2  1 
 450.918076   5.67798   20.0606  108.0699   52.5628   146.9139   131.1723   0    2  1 
 451.421392   5.69032   20.0588  107.8997   52.4252   146.8190   131.2895   0    2  1 
 451.924708   5.69879   20.0607  107.7803   52.3336   146.8167   131.2625   0    2  1 
 452.428024   5.71161   20.0621  107.6006   52.1926   146.7071   131.3594   0    2  1 
 452.931340   5.72065   20.0624  107.4747   52.0930   146.6336   131.3005   0    2  1 
 453.434656   5.73153   20.0635  107.3236   51.9733   146.7145   131.3137   0    2  1 
 453.937972   5.74397   20.0613  107.1563   51.8341   146.7291   131.3015   0    2  1 
 454.441288   5.75518   20.0622  107.0023   51.7098   146.7248   131.2599   0    2  0 
 454.944604   5.76370   20.0638  106.8840   51.6172   146.8414   131.2584   0    2  0 
 455.447920   5.72531   20.1923  107.2513   52.1275   146.7060   131.2083   0    2  0 
 455.951236   5.73124   20.2445  107.1033   52.0942   146.7481   131.2577   0    2  0 
 456.454552   5.73305   20.2303  107.0984   52.0667   146.6693   131.2498   0    3  1 
 456.957868   5.73316   20.2300  107.0998   52.0668   146.7751   131.2599   0    3  1 
 457.461184   5.73404   20.2177  107.1052   52.0511   146.6638   131.3154   0    3  1 
 457.964500   5.73437   20.2175  107.1029   52.0488   146.6659   131.2736   0    3  1 
 458.467816   5.68226   20.1664  107.8986   52.6039   146.7476   131.2841   0    3  1 
 458.971132   5.67971   20.1464  107.9630   52.6211   146.8955   131.1589   0    3  1 
 459.474448   5.67331   20.2106  107.9741   52.7334   146.8947   131.1538   0    3  1 
 459.977764   5.66250   20.2213  108.1155   52.8622   146.8940   131.1814   0    3  1 
 460.481080   5.65216   20.2216  108.2660   52.9794   146.8221   131.1474   0    3  1 
 460.984396   5.64188   20.2127  108.4257   53.0898   146.9014   130.9780   0    3  1 
 461.487712   5.63102   20.2144  108.5830   53.2138   146.9283   130.9502   0    3  1 
 461.991028   5.62001   20.2129  108.7464   53.3369   147.0304   130.9966   0    3  1 
 462.494344   5.60965   20.2134  108.8992   53.4539   147.0118   130.9057   0    3  1 
 462.997660   5.59971   20.2107  109.0494   53.5643   146.9205   131.0373   0    3  1 
 463.500976   5.58841   20.2133  109.2143   53.6928   146.9620   130.7981   0    3  1 
 464.004292   5.57754   20.2114  109.3790   53.8137   147.0139   130.7406   0    3  1 
 464.507608   5.56796   20.2104  109.5246   53.9209   147.0224   130.8851   0    3  1 
 465.010924   5.55777   20.2135  109.6733   54.0365   146.9459   130.9159   0    3  1 
 465.514240   5.54659   20.2117  109.8457   54.1610   146.9172   130.9972   0    3  1 
 466.017556   5.53642   20.2122  109.9993   54.2751   146.7393   130.8820   0    3  1 
 466.520872   5.52499   20.2126  110.1731   54.4028   146.8119   130.9761   0    3  1 
 467.024188   5.51484   20.2123  110.3294   54.5162   146.7351   130.9509   0    3  1 
 467.527504   5.50375   20.2101  110.5032   54.6382   146.6474   130.9585   0    3  1 
 468.030820   5.49371   20.2096  110.6595   54.7502   146.5806   131.0527   0    3  1 
 468.534136   5.48243   20.2100  110.8347   54.8756   146.6380   131.0643   0    3  1 
 469.037452   5.47239   20.2120  110.9885   54.9884   146.5722   131.1161   0    3  1 
 469.540768   5.46110   20.2123  111.1658   55.1137   146.5435   131.0939   0    3  1 
 470.044084   5.45093   20.2131  111.3248   55.2279   146.5927   130.9332   0    3  1 
 470.547400   5.43957   20.2111  111.5080   55.3520   146.6463   130.9073   0    3  1 
 471.050716   5.42953   20.2121  111.6671   55.4638   146.6382   130.8689   0    3  1 
 471.554032   5.41665   20.2124  111.8718   55.6059   146.6081   130.8274   0    3  1 
 472.057348   5.40842   20.2118  112.0056   55.6966   146.7244   130.9511   0    3  1 
 472.560664   5.39674   20.2133  112.1925   55.8261   146.7509   130.7877   0    3  0 
 473.063980   5.38716   20.2139  112.3487   55.9326   146.7062   130.9753   0    3  0 
 473.567296   5.42163   20.2619  111.7338   55.5896   146.6414   130.8769   0    3  0 
 474.070612   5.42761   20.6600  111.0930   55.7778   146.7291   131.0345   0    3  0 
 474.573928   5.41662   20.3578  111.6864   55.7072   146.8645   131.1056   0    4  1 
 475.077244   5.41593   20.3600  111.6973   55.7173   146.7253   130.8885   0    4  1 
 475.580560   5.41602   20.3599  111.6976   55.7183   146.7795   130.9160   0    4  1 
 476.083876   5.41570   20.3663  111.6961   55.7273   146.8788   131.0050   0    4  1 
 476.587192   5.46213   20.3187  111.0328   55.1915   146.9104   130.9970   0    4  1 
 477.090508   5.47590   20.5240  110.5394   55.1717   146.9593   130.9062   0    4  1 
 477.593824   5.47417   20.3603  110.7963   55.0884   146.7431   130.8751   0    4  1 
 478.097140   5.48567   20.3469  110.6397   54.9551   146.6699   131.0517   0    4  1 
 478.600456   5.49613   20.3533  110.4728   54.8457   146.7142   130.8629   0    4  1 
 479.103772   5.50818   20.3693  110.2685   54.7249   146.7184   130.9408   0    4  1 
 479.607088   5.51754   20.3625  110.1390   54.6188   146.6552   130.9008   0    4  1 
 480.110404   5.52972   20.3557  109.9655   54.4815   146.7730   131.0242   0    4  1 
 480.613720   5.53935   20.3567  109.8225   54.3775   146.8082   131.0270   0    4  1 
 481.117036   5.55093   20.3641  109.6394   54.2555   146.8277   130.7929   0    4  1 
 481.620352   5.56069   20.3604  109.5017   54.1467   146.9918   130.7682   0    4  1 
 482.123668   5.57328   20.3592  109.3191   54.0082   147.1598   130.8569   0    4  1 
 482.626984   5.58140   20.3626  109.1969   53.9216   147.1828   130.8599   0    4  1 
 483.130300   5.59435   20.3613  109.0097   53.7790   147.3063   130.8547   0    4  1 
 483.633616   5.60328   20.3631  108.8787   53.6821   147.3027   130.6856   0    4  1 
 484.136932   5.61590   20.3614  108.6984   53.5425   146.9583   130.6188   0    4  1 
 484.640248   5.62417   20.3623  108.5800   53.4523   146.9799   130.6263   0    4  1 
 485.143564   5.63733   20.3630  108.3902   53.3077   146.9650   130.7801   0    4  1 
 485.646880   5.64615   20.3624  108.2664   53.2104   146.8944   130.7498   0    4  1 
 486.150196   5.65745   20.3612  108.1081   53.0853   146.7511   130.8305   0    4  1 
 486.653512   5.66697   20.3598  107.9764   52.9795   146.7160   130.8938   0    4  1 
 487.156828   5.67894   20.3635  107.8024   52.8495   146.6858   131.0671   0    4  1 
 487.660144   5.68904   20.3633  107.6620   52.7382   146.7455   131.1701   0    4  1 
 488.163460   5.70140   20.3633  107.4896   52.6007   146.6976   131.2325   0    4  1 
 488.666776   5.70926   20.3632  107.3818   52.5143   146.6996   131.1886   0    4  1 
 489.170092   5.72172   20.3621  107.2106   52.3759   146.6100   131.2782   0    4  1 
 489.673408   5.73260   20.3634  107.0590   52.2557   146.6801   131.1543   0    4  1 
 490.176724   5.74291   20.3600  106.9230   52.1394   146.6456   131.0873   0    4  1 
 490.680040   5.75288   20.3623  106.7844   52.0305   146.7246   131.1650   0    4  0 
 491.183356   5.76434   20.3639  106.6263   51.9040   146.8533   131.1872   0    4  0 
 491.686672   5.73382   20.4118  106.9874   52.2779   146.7667   131.1747   0    4  0 
 492.189988   5.72892   20.5548  106.8701   52.4205   146.8231   131.2651   0    4  0 
 492.693304   5.73326   20.5314  106.8429   52.3590   146.7509   131.1587   0    5  1 
 493.196620   5.73312   20.5277  106.8513   52.3600   146.7801   131.2178   0    5  1 
 493.699936   5.73407   20.5157  106.8560   52.3435   146.6931   131.1619   0    5  1 
 494.203252   5.73438   20.5187  106.8496   52.3437   146.8760   131.2237   0    5  1 
 494.706568   5.69398   20.5372  107.3889   52.8101   146.7544   131.1498   0    5  1 
 495.209884   5.66689   20.3512  108.0165   53.0036   146.8083   131.0942   0    5  1 
 495.713200   5.67466   20.5243  107.6846   53.0218   146.7841   131.0128   0    5  1 
 496.216516   5.66557   20.5345  107.8029   53.1316   146.9084   130.8913   0    5  1 
 496.719832   5.65363   20.5209  107.9925   53.2579   146.7873   130.7538   0    5  1 
 497.223148   5.64220   20.5130  108.1689   53.3826   146.8912   130.8303   0    5  1 
 497.726464   5.63256   20.5160  108.3058   53.4932   147.0495   130.7461   0    5  1 
 498.229780   5.62305   20.5110  108.4519   53.5976   147.0660   130.6527   0    5  1 
 498.733096   5.61126   20.5148  108.6202   53.7331   147.0879   130.7341   0    5  1 
 499.236412   5.59963   20.5085  108.7998   53.8602   147.3935   130.7874   0    5  1 
 499.739728   5.59014   20.5139  108.9343   53.9706   147.4574   130.7152   0    5  1 
 500.243044   5.58040   20.5121  109.0829   54.0791   147.4007   130.7304   0    5  1 
 500.746360   5.56868   20.5115  109.2584   54.2105   147.3660   130.6456   0    5  1 
 501.249676   5.55730   20.5118  109.4291   54.3384   147.1818   130.7031   0    5  1 
 501.752992   5.54773   20.5144  109.5709   54.4475   147.0593   130.6111   0    5  1 
 502.256308   5.53757   20.5149  109.7249   54.5617   146.9567   130.6826   0    5  1 
 502.759624   5.52688   20.5122  109.8915   54.6797   146.8905   130.5461   0    5  1 
 503.262940   5.51315   20.5135  110.0998   54.8336   146.6921   130.4315   0    5  1 
 503.766256   5.50490   20.5135  110.2273   54.9259   146.6939   130.5355   0    5  1 
 504.269572   5.49492   20.5116  110.3847   55.0363   146.6384   130.4845   0    5  1 
 504.772888   5.48431   20.5120  110.5494   55.1548   146.7211   130.6028   0    5  1 
 505.276204   5.47037   20.5092  110.7690   55.3083   146.6567   130.6247   0    5  1 
 505.779520   5.46295   20.5130  110.8824   55.3932   146.6059   130.6042   0    5  1 
 506.282836   5.45134   20.5122  111.0659   55.5214   146.6874   130.5766   0    5  1 
 506.786152   5.44151   20.5137  111.2203   55.6319   146.7605   130.5131   0    5  1 
 507.289468   5.42913   20.5130  111.4169   55.7685   146.8383   130.5048   0    5  1 
 507.792784   5.42004   20.5132  111.5633   55.8698   146.9654   130.5050   0    5  1 
 508.296100   5.40841   20.5120  111.7522   55.9974   146.9541   130.6254   0    5  1 
 508.799416   5.39883   20.5135  111.9053   56.1040   146.9460   130.5794   0    5  0 
 509.302732   5.38705   20.5158  112.0930   56.2354   146.8247   130.5142   0    5  0 
 509.806048   5.42493   20.4435  111.5913   55.7782   147.0203   130.6325   0    5  0 
 510.309364   5.41869   20.6920  111.3482   56.0042   147.1065   130.7342   0    5  0 
 510.812680   5.41602   20.6646  111.4308   56.0179   147.1463   130.6643   0    6  1 
 511.315996   5.41519   20.6650  111.4454   56.0282   147.1413   130.6549   0    6  1 
 511.819312   5.41540   20.6676  111.4408   56.0293   146.9216   130.7384   0    6  1 
 512.322628   5.41531   20.6683  111.4430   56.0322   146.8871   130.7398   0    6  1 
 512.825944   5.45726   20.6259  110.8435   55.5482   146.8657   130.7779   0    6  1 
 513.329260   5.47552   20.8328  110.2723   55.4792   146.8454   130.6985   0    6  1 
 513.832576   5.47366   20.6553  110.5549   55.3891   146.7418   130.7543   0    6  1 
 514.335892   5.48354   20.6458  110.4181   55.2759   146.7608   130.5690   0    6  1 
 514.839208   5.49557   20.6574  110.2198   55.1521   146.6578   130.5151   0    6  1 
 515.342524   5.50663   20.6574  110.0532   55.0323   146.6880   130.4361   0    6  1 
 515.845840   5.51697   20.6614  109.8928   54.9218   146.7828   130.4813   0    6  1 
 516.349156   5.52616   20.6655  109.7503   54.8236   146.8737   130.3886   0    6  1 
 516.852472   5.53865   20.6615  109.5702   54.6851   146.9211   130.4638   0    6  1 
 517.355788   5.54736   20.6618  109.4398   54.5903   147.0546   130.3856   0    6  1 
 517.859104   5.56003   20.6624  109.2534   54.4519   147.2678   130.5584   0    6  1 
 518.362420   5.56975   20.6599  109.1143   54.3441   147.3853   130.7129   0    6  1 
 518.865736   5.58138   20.6631  108.9408   54.2184   147.4711   130.7365   0    6  1 
 519.369052   5.59125   20.6630  108.7973   54.1104   147.5061   130.8387   0    6  1 
 519.872368   5.60340   20.6631  108.6215   53.9767   147.5390   130.7999   0    6  1 
 520.375684   5.61163   20.6658  108.5004   53.8883   147.3334   130.4746   0    6  1 
 520.879000   5.62467   20.6620  108.3177   53.7421   147.3112   130.3325   0    6  1 
 521.382316   5.63279   20.6646  108.1984   53.6546   147.0643   130.3471   0    6  1 
 521.885632   5.64735   20.6649  107.9912   53.4943   146.9053   130.2878   0    6  1 
 522.388948   5.65432   20.6601  107.8997   53.4144   146.6934   130.4252   0    6  1 
 522.892264   5.66872   20.6621  107.6933   53.2563   146.7338   130.5465   0    6  1 
 523.395580   5.67683   20.6631  107.5790   53.1677   146.6398   130.6640   0    6  1 
 523.898896   5.69013   20.6623  107.3938   53.0198   146.6339   130.6126   0    6  1 
 524.402212   5.69879   20.6622  107.2741   52.9241   146.7054   130.6658   0    6  1 
 524.905528   5.71169   20.6627  107.0945   52.7812   146.8174   130.7327   0    6  1 
 525.408844   5.72003   20.6628  106.9795   52.6890   146.7727   130.7288   0    6  1 
 525.912160   5.72919   20.6634  106.8535   52.5880   146.7006   130.8030   0    6  1 
 526.415476   5.74216   20.6603  106.6794   52.4417   146.8146   130.8905   0    6  1 
 526.918792   5.75233   20.6620  106.5394   52.3299   146.7257   131.0171   0    6  0 
 527.422108   5.76297   20.6631  106.3939   52.2125   146.7675   130.9138   0    6  0 
 527.925424   5.72066   20.7184  106.9062   52.7234   146.6272   130.9022   0    6  0 
 528.428740   5.73148   20.9657  106.4325   52.7509   146.6782   130.8723   0    6  0 
 528.932056   5.73349   20.8175  106.6020   52.6411   146.6101   130.9020   0    7  0 
 529.435372   5.73393   20.8183  106.5980   52.6386   146.6248   131.0207   0    7  1 
 529.938688   5.73359   20.8291  106.5887   52.6500   146.6757   131.0042   0    7  1 
 530.442004   5.73442   20.8211  106.5904   52.6378   146.5219   131.0581   0    7  1 
 530.945320   5.73436   20.8171  106.5983   52.6378   146.6723   131.0062   0    7  1 
 531.448636   5.68149   20.6900  107.5066   53.1572   146.6227   130.8723   0    7  1 
 531.951952   5.68277   20.8501  107.2784   53.2410   146.6930   130.8160   0    7  1 
 532.455268   5.66767   20.8422  107.5053   53.4068   146.8150   130.9132   0    7  1 
 532.958584   5.66172   20.8192  107.6222   53.4607   146.6644   130.8196   0    7  1 
 533.461900   5.64703   20.8098  107.8470   53.6213   146.6161   130.5495   0    7  1 
 533.965216   5.63853   20.8125  107.9675   53.7197   146.7211   130.4368   0    7  1 
 534.468532   5.62568   20.8202  108.1446   53.8697   146.7850   130.3680   0    7  1 
 534.971848   5.61738   20.8168  108.2716   53.9612   147.1394   130.3992   0    7  1 
 535.475164   5.60423   20.8136  108.4687   54.1075   147.1465   130.5279   0    7  1 
 535.978480   5.59666   20.8145  108.5805   54.1941   147.5210   130.7808   0    7  1 
 536.481796   5.58487   20.8136  108.7570   54.3260   147.6040   130.8920   0    7  1 
 536.985112   5.57503   20.8142  108.9035   54.4378   147.5867   130.9051   0    7  1 
 537.488428   5.56477   20.8129  109.0594   54.5523   147.5185   130.8057   0    7  1 
 537.991744   5.55236   20.8097  109.2489   54.6897   147.2591   130.6905   0    7  1 
 538.495060   5.54377   20.8124  109.3765   54.7880   147.1828   130.6293   0    7  1 
 538.998376   5.53168   20.8140  109.5585   54.9246   146.9218   130.5311   0    7  1 
 539.501692   5.52231   20.8142  109.7015   55.0298   146.9501   130.5699   0    7  1 
 540.005008   5.51042   20.8140  109.8844   55.1631   146.7593   130.5219   0    7  1 
 540.508324   5.50139   20.8114  110.0283   55.2626   146.4854   130.4090   0    7  1 
 541.011640   5.48948   20.8137  110.2093   55.3966   146.5114   130.3723   0    7  1 
 541.514956   5.48019   20.8148  110.3525   55.5010   146.5147   130.3690   0    7  1 
 542.018272   5.46974   20.8117  110.5195   55.6154   146.5499   130.3881   0    7  1 
 542.521588   5.45870   20.8128  110.6924   55.7392   146.3216   130.4550   0    7  1 
 543.024904   5.44639   20.8134  110.8859   55.8765   146.3562   130.4581   0    7  1 
 543.528220   5.43760   20.8119  111.0275   55.9741   146.4849   130.3189   0    7  1 
 544.031536   5.42705   20.8128  111.1944   56.0911   146.6158   130.3803   0    7  1 
 544.534852   5.41359   20.8132  111.4087   56.2403   146.5635   130.5035   0    7  1 
 545.038168   5.40353   20.8148  111.5698   56.3527   146.6057   130.4584   0    7  1 
 545.541484   5.39293   20.8157  111.7406   56.4705   146.6034   130.4250   0    7  0 
 546.044800   5.38892   20.7920  111.8402   56.5007   146.7209   130.5771   0    7  0 
 546.548116   5.42037   21.0723  110.9460   56.3355   146.8270   130.5132   0    7  0 
 547.051432   5.41474   20.9517  111.2080   56.3221   146.7110   130.6221   0    8  0 
 547.554748   5.41525   20.9609  111.1892   56.3240   146.7330   130.6262   0    8  1 
 548.058064   5.41631   20.9592  111.1766   56.3124   146.8053   130.5171   0    8  1 
 548.561380   5.41599   20.9625  111.1798   56.3196   146.6272   130.3979   0    8  1 
 549.064696   5.43424   20.9397  110.9260   56.1070   146.5156   130.4145   0    8  1 
 549.568012   5.47632   20.9676  110.2274   55.6644   146.4800   130.3647   0    8  1 
 550.071328   5.47305   20.9870  110.2575   55.7131   146.4022   130.4511   0    8  1 
 550.574644   5.48203   20.9689  110.1476   55.6043   146.4214   130.4733   0    8  1 
 551.077960   5.49332   20.9652  109.9821   55.4789   146.4545   130.5683   0    8  1 
 551.581276   5.50396   20.9452  109.8498   55.3504   146.4383   130.5395   0    8  1 
 552.084592   5.51411   20.9564  109.6817   55.2468   146.5976   130.5716   0    8  1 
 552.587908   5.52482   20.9714  109.5018   55.1394   146.8400   130.5223   0    8  1 
 553.091224   5.53259   20.9611  109.4006   55.0482   146.8699   130.6218   0    8  1 
 553.594540   5.54669   20.9543  109.2010   54.8892   147.0607   130.4553   0    8  1 
 554.097856   5.55486   20.9607  109.0731   54.8042   147.0285   130.4457   0    8  1 
 554.601172   5.56788   20.9634  108.8766   54.6629   147.0059   130.5391   0    8  1 
 555.104488   5.57565   20.9643  108.7631   54.5785   147.1247   130.5032   0    8  1 
 555.607804   5.58934   20.9640  108.5642   54.4272   147.0690   130.5743   0    8  1 
 556.111120   5.59727   20.9646  108.4483   54.3407   147.1558   130.6418   0    8  1 
 556.614436   5.61074   20.9627  108.2568   54.1912   147.1352   130.9069   0    8  1 
 557.117752   5.61855   20.9633  108.1449   54.1058   147.1066   130.9655   0    8  1 
 557.621068   5.62944   20.9613  107.9922   53.9843   146.9855   130.7915   0    8  1 
 558.124384   5.63988   20.9608  107.8447   53.8691   146.7412   130.4504   0    8  1 
 558.627700   5.65100   20.9657  107.6801   53.7493   146.5355   130.5209   0    8  1 
 559.131016   5.66140   20.9648  107.5339   53.6337   146.2543   130.5808   0    8  1 
 559.634332   5.67240   20.9617  107.3846   53.5103   146.2252   130.7070   0    8  1 
 560.137648   5.68299   20.9627  107.2347   53.3936   146.2266   130.7002   0    8  1 
 560.640964   5.69368   20.9625  107.0871   53.2749   146.2936   130.6341   0    8  1 
 561.144280   5.70476   20.9627  106.9328   53.1522   146.3855   130.6498   0    8  1 
 561.647596   5.71498   20.9603  106.7957   53.0377   146.3860   130.6468   0    8  1 
 562.150912   5.72838   20.9595  106.6116   52.8879   146.4836   130.5401   0    8  1 
 562.654228   5.73695   20.9614  106.4927   52.7939   146.4116   130.6736   0    8  1 
 563.157544   5.74970   20.9634  106.3159   52.6533   146.4325   130.6138   0    8  1 
 563.660860   5.75847   20.9657  106.1946   52.5571   146.5668   130.6194   0    8  0 
 564.164176   5.77059   20.9681  106.0275   52.4231   146.6685   130.7489   0    8  0 
 564.667492   5.72803   21.1854  106.3253   53.0341   146.7323   130.7634   0    8  0 
 565.170808   5.72955   21.1652  106.3330   53.0062   146.7027   130.9079   0    8  0 
 565.674124   5.73257   21.1472  106.3179   52.9637   146.7624   130.8376   0    9  1 
 566.177440   5.73391   21.1173  106.3407   52.9323   146.5951   130.9124   0    9  1 
 566.680756   5.73430   21.1159  106.3392   52.9281   146.4246   130.8283   0    9  1 
 567.184072   5.73451   21.1194  106.3333   52.9298   146.5082   130.8703   0    9  1 
 567.687388   5.70650   21.1253  106.7152   53.2507   146.4957   130.9563   0    9  1 
 568.190704   5.67939   21.0139  107.2471   53.4905   146.4368   130.9904   0    9  1 
 568.694020   5.67760   21.1003  107.1599   53.5632   146.4660   130.9931   0    9  1 
 569.197336   5.66425   21.1251  107.3175   53.7296   146.5096   130.8184   0    9  1 
 569.700652   5.65485   21.1221  107.4572   53.8349   146.4773   130.6824   0    9  1 
 570.203968   5.64307   21.1171  107.6347   53.9654   146.6874   130.5615   0    9  1 
 570.707284   5.63425   21.1118  107.7712   54.0626   147.0130   130.6826   0    9  1 
 571.210600   5.62204   21.1141  107.9452   54.2017   147.0057   130.7812   0    9  1 
 571.713916   5.61247   21.1143  108.0865   54.3106   147.0345   130.7003   0    9  1 
 572.217232   5.60193   21.1142  108.2419   54.4297   146.8258   130.6673   0    9  1 
 572.720548   5.59196   21.1165  108.3869   54.5440   146.8178   130.4229   0    9  1 
 573.223864   5.58060   21.1143  108.5588   54.6706   146.8559   130.3783   0    9  1 
 573.727180   5.56926   21.1134  108.7296   54.7980   146.8011   130.4998   0    9  1 
 574.230496   5.56005   21.1150  108.8655   54.9027   146.6035   130.5819   0    9  1 
 574.733812   5.54760   21.1127  109.0572   55.0414   146.5277   130.5501   0    9  1 
 575.237128   5.53838   21.1133  109.1951   55.1451   146.6984   130.4346   0    9  1 
 575.740444   5.52585   21.1128  109.3869   55.2857   146.8949   130.4491   0    9  1 
 576.243760   5.51682   21.1140  109.5247   55.3880   146.9475   130.6708   0    9  1 
 576.747076   5.50451   21.1137  109.7135   55.5258   146.9337   130.6161   0    9  1 
 577.250392   5.49615   21.1169  109.8393   55.6216   146.7792   130.5696   0    9  1 
 577.753708   5.48344   21.1145  110.0397   55.7621   146.5727   130.5907   0    9  1 
 578.257024   5.47334   21.1144  110.1977   55.8749   146.6474   130.4945   0    9  1 
 578.760340   5.46189   21.1140  110.3772   56.0024   146.5261   130.5313   0    9  1 
 579.263656   5.45339   21.1112  110.5150   56.0958   146.4213   130.4817   0    9  1 
 579.766972   5.44027   21.1123  110.7218   56.2422   146.5590   130.5208   0    9  1 
 580.270288   5.43017   21.1115  110.8831   56.3539   146.5270   130.5313   0    9  1 
 580.773604   5.41917   21.1143  111.0552   56.4779   146.6789   130.4217   0    9  1 
 581.276920   5.41089   21.1110  111.1944   56.5683   146.6771   130.4893   0    9  1 
 581.780236   5.39906   21.1145  111.3802   56.7014   146.7145   130.5576   0    9  0 
 582.283552   5.38953   21.1155  111.5334   56.8077   146.7850   130.4951   0    9  0 
 582.786868   5.41276   21.0566  111.2491   56.5183   146.8812   130.7932   0    9  0 
 583.290184   5.42477   21.4698  110.4714   56.6455   146.9916   130.7181   0    9  0 
 583.793500   5.41494   21.2556  110.9360   56.6214   146.9041   130.8170   0   10  1 
 584.296816   5.41588   21.2628  110.9125   56.6173   146.8818   130.8500   0   10  1 
 584.800132   5.41591   21.2637  110.9132   56.6189   146.7985   130.6833   0   10  1 
 585.303448   5.41608   21.2603  110.9170   56.6163   146.6717   130.6010   0   10  1 
 585.806764   5.43876   21.2351  110.5980   56.3536   146.5519   130.6383   0   10  1 
 586.310080   5.47078   21.4164  109.8422   56.1148   146.4857   130.6232   0   10  1 
 586.813396   5.47167   21.2636  110.0496   56.0115   146.5647   130.5616   0   10  1 
 587.316712   5.48349   21.2485  109.8908   55.8735   146.4793   130.4083   0   10  1 
 587.820028   5.49350   21.2565  109.7290   55.7691   146.6639   130.4487   0   10  1 
 588.323344   5.50647   21.2702  109.5129   55.6353   146.9498   130.4986   0   10  1 
 588.826660   5.51544   21.2621  109.3909   55.5328   147.1386   130.5213   0   10  1 
 589.329976   5.52638   21.2545  109.2390   55.4086   146.8709   130.6238   0   10  1 
 589.833292   5.53682   21.2629  109.0719   55.2992   146.6965   130.7010   0   10  1 
 590.336608   5.54916   21.2595  108.8936   55.1617   146.9042   131.2692   0   10  1 
 590.839924   5.55770   21.2661  108.7604   55.0724   147.6304   132.0899   0   10  1 
 591.343240   5.56877   21.2637  108.6014   54.9491   148.5386   132.6384   0   10  1 
 591.846556   5.57882   21.2632  108.4557   54.8384   149.0964   132.7161   0   10  1 
 592.349872   5.59167   21.2621  108.2700   54.6965   148.7408   132.1462   0   10  1 
 592.853188   5.60162   21.2631  108.1260   54.5872   147.6675   131.2255   0   10  1 
 593.356504   5.61150   21.2631  107.9839   54.4780   147.0084   130.7995   0   10  1 
 593.859820   5.62302   21.2644  107.8171   54.3520   146.6276   130.8502   0   10  1 
 594.363136   5.63247   21.2593  107.6890   54.2446   146.6741   130.9424   0   10  1 
 594.866452   5.64454   21.2638  107.5122   54.1137   146.6721   131.0329   0   10  1 
 595.369768   5.65467   21.2632  107.3700   54.0017   146.6896   130.8213   0   10  1 
 595.873084   5.66589   21.2645  107.2104   53.8779   146.4262   130.8165   0   10  1 
 596.376400   5.67488   21.2628  107.0870   53.7773   146.3037   130.7454   0   10  1 
 596.879716   5.68702   21.2636  106.9167   53.6432   146.1894   130.7833   0   10  1 
 597.383032   5.69709   21.2628  106.7782   53.5311   146.3660   130.8895   0   10  1 
 597.886348   5.70901   21.2628  106.6137   53.3987   146.4497   130.7834   0   10  1 
 598.389664   5.71789   21.2651  106.4876   53.3017   146.3746   130.8824   0   10  1 
 598.892980   5.73110   21.2642  106.3086   53.1535   146.4837   130.8146   0   10  1 
 599.396296   5.73997   21.2629  106.1890   53.0541   146.3721   130.8801   0   10  1 
 599.899612   5.75197   21.2631  106.0255   52.9204   146.2925   130.9245   0   10  1 
 600.402928   5.76104   21.2682  105.8962   52.8227   146.3293   131.0330   0   10  0 
 600.906244   5.73354   21.2976  106.2369   53.1522   146.2787   130.9128   0   10  0 
 601.409560   5.73062   21.4418  106.0846   53.2717   146.3979   130.8744   0   10  0 
 601.912876   5.73468   21.3858  106.1074   53.1952   146.4723   130.8652   0   11  1 
 602.416192   5.73360   21.4271  106.0670   53.2329   146.4804   130.8012   0   11  1 
 602.919508   5.73418   21.4191  106.0725   53.2230   146.4847   130.9074   0   11  1 
 603.422824   5.73451   21.4214  106.0668   53.2222   146.3748   130.8142   0   11  1 
 603.926140   5.69986   21.4322  106.5334   53.6214   146.3007   130.5315   0   11  1 
 604.429456   5.66892   21.3186  107.1210   53.9038   146.3567   130.6670   0   11  1 
 604.932772   5.67592   21.4330  106.8740   53.8942   146.4751   130.6163   0   11  1 
 605.436088   5.66601   21.4257  107.0258   54.0027   146.5358   130.6595   0   11  1 
 605.939404   5.65591   21.4221  107.1768   54.1156   146.7332   130.6991   0   11  1 
 606.442720   5.64366   21.4155  107.3621   54.2509   146.8582   130.9804   0   11  1 
 606.946036   5.63446   21.4169  107.4948   54.3563   146.7232   130.9791   0   11  1 
 607.449352   5.62351   21.4113  107.6624   54.4773   146.6927   130.7570   0   11  1 
 607.952668   5.61337   21.4143  107.8068   54.5938   147.2501   131.0194   0   11  1 
 608.455984   5.60142   21.4096  107.9895   54.7266   149.6283   132.2542   0   11  1 
 608.959300   5.59214   21.4147  108.1198   54.8345   153.2238   135.0634   0   11  1 
 609.462616   5.58024   21.4144  108.2970   54.9689   156.9261   138.5413   0   11  1 
 609.965932   5.57223   21.4144  108.4171   55.0598   158.2721   140.8921   0   11  1 
 610.469248   5.56064   21.4140  108.5907   55.1901   156.8109   140.4442   0   11  1 
 610.972564   5.54911   21.4146  108.7645   55.3202   152.8629   137.6879   0   11  1 
 611.475880   5.53917   21.4119  108.9185   55.4306   149.1055   134.0130   0   11  1 
 611.979196   5.52792   21.4111  109.0907   55.5572   146.9997   131.5527   0   11  1 
 612.482512   5.51783   21.4118  109.2445   55.6707   146.6793   130.6565   0   11  1 
 612.985828   5.50678   21.4138  109.4116   55.7959   147.0169   130.6661   0   11  1 
 613.489144   5.49660   21.4139  109.5686   55.9105   147.2259   130.8544   0   11  1 
 613.992460   5.48451   21.4156  109.7529   56.0466   147.0482   130.9271   0   11  1 
 614.495776   5.47276   21.4143  109.9378   56.1771   146.6974   130.8281   0   11  1 
 614.999092   5.46390   21.4142  110.0783   56.2765   146.5433   130.6285   0   11  1 
 615.502408   5.45282   21.4145  110.2519   56.4005   146.3828   130.4882   0   11  1 
 616.005724   5.44104   21.4140  110.4384   56.5312   146.4636   130.4257   0   11  1 
 616.509040   5.43155   21.4108  110.5948   56.6353   146.4599   130.5351   0   11  1 
 617.012356   5.41830   21.4135  110.8025   56.7843   146.5821   130.6954   0   11  1 
 617.515672   5.41158   21.4127  110.9125   56.8587   146.7717   130.7088   0   11  1 
 618.018988   5.39847   21.4154  111.1195   57.0059   146.7354   130.7730   0   11  1 
 618.522304   5.39036   21.4140  111.2526   57.0954   146.6785   130.7584   0   11  0 
 619.025620   5.40235   21.3660  111.1345   56.9353   146.9166   131.0157   0   11  0 
 619.528936   5.42600   21.7959  110.1395   56.9441   146.9537   130.9769   0   11  0 
 620.032252   5.41408   21.5555  110.6788   56.9279   146.8105   131.0792   0   12  1 
 620.535568   5.41612   21.5664  110.6330   56.9130   146.8852   130.9233   0   12  1 
 621.038884   5.41583   21.5641  110.6430   56.9167   146.7825   130.8658   0   12  1 
 621.542200   5.41601   21.5615  110.6460   56.9146   146.6312   130.6953   0   12  1 
 622.045516   5.46060   21.5265  109.9967   56.4041   146.6230   130.6587   0   12  1 
 622.548832   5.46798   21.5457  109.8590   56.3356   146.7499   130.6598   0   12  1 
 623.052148   5.47723   21.5478  109.7157   56.2359   146.8809   130.7196   0   12  1 
 623.555464   5.48787   21.5508  109.5502   56.1216   147.1409   130.9160   0   12  1 
 624.058780   5.49893   21.5604  109.3703   56.0064   147.3722   130.9136   0   12  1 
 624.562096   5.51215   21.5562  109.1767   55.8589   147.0404   130.8741   0   12  1 
 625.065412   5.51985   21.5630  109.0530   55.7792   146.4802   130.7935   0   12  1 
 625.568728   5.53333   21.5675  108.8451   55.6339   147.1657   132.0076   0   12  1 
 626.072044   5.54169   21.5647  108.7271   55.5405   150.7679   135.9179   0   12  1 
 626.575360   5.55272   21.5630  108.5662   55.4181   158.3715   143.1351   0   12  1 
 627.078676   5.56136   21.5666  108.4358   55.3257   168.3240   151.5790   0   12  1 
 627.581992   5.57416   21.5636  108.2521   55.1826   175.7647   157.2229   0   12  1 
 628.085308   5.58287   21.5625  108.1274   55.0861   177.2424   156.7604   0   12  1 
 628.588624   5.59742   21.5634  107.9151   54.9260   171.7089   150.4999   0   12  1 
 629.091940   5.60433   21.5634  107.8175   54.8508   162.1114   142.0205   0   12  1 
 629.595256   5.61908   21.5640  107.6037   54.6870   153.4945   135.2483   0   12  1 
 630.098572   5.62576   21.5651  107.5076   54.6142   148.4232   131.8962   0   12  1 
 630.601888   5.63793   21.5645  107.3358   54.4793   146.6517   130.9226   0   12  1 
 631.105204   5.64726   21.5663  107.2017   54.3775   146.4695   131.0246   0   12  1 
 631.608520   5.66135   21.5641  107.0050   54.2194   146.5377   131.2940   0   12  1 
 632.111836   5.66815   21.5627  106.9133   54.1433   146.5014   130.9737   0   12  1 
 632.615152   5.68045   21.5631  106.7405   54.0070   146.5990   130.8560   0   12  1 
 633.118468   5.68969   21.5689  106.6050   53.9079   146.4496   130.8512   0   12  1 
 633.621784   5.70182   21.5644  106.4425   53.7701   146.3765   130.7567   0   12  1 
 634.125100   5.71176   21.5643  106.3066   53.6598   146.3828   130.9006   0   12  1 
 634.628416   5.72351   21.5645  106.1444   53.5288   146.2827   130.9755   0   12  1 
 635.131732   5.73479   21.5675  105.9859   53.4048   146.5213   130.8096   0   12  1 
 635.635048   5.74477   21.5637  105.8555   53.2915   146.5225   130.7863   0   12  1 
 636.138364   5.75399   21.5664  105.7276   53.1903   146.4466   130.7378   0   12  0 
 636.641680   5.76581   21.5673  105.5671   53.0586   146.5181   130.9000   0   12  0 
 637.144996   5.71219   21.8229  105.9585   53.8170   146.4727   130.6877   0   12  0 
 637.648312   5.73166   21.7438  105.7990   53.5514   146.5093   130.7370   0   12  0 
 638.151628   5.73232   21.7536  105.7792   53.5517   146.5475   130.7477   0   13  1 
 638.654944   5.73333   21.7291  105.8001   53.5275   146.5096   130.7817   0   13  1 
 639.158260   5.73431   21.7215  105.7990   53.5133   146.5072   130.8512   0   13  1 
 639.661576   5.73445   21.7154  105.8078   53.5096   146.5024   130.9641   0   13  1 
 640.164892   5.68019   21.6419  106.6619   54.0807   146.4426   130.7939   0   13  1 
 640.668208   5.68243   21.7169  106.5321   54.1010   146.5095   130.6250   0   13  1 
 641.171524   5.67273   21.7008  106.6938   54.2025   146.5985   130.6935   0   13  1 
 641.674840   5.66293   21.7302  106.7932   54.3311   146.8354   130.9455   0   13  1 
 642.178156   5.65142   21.7268  106.9644   54.4603   146.9880   131.0519   0   13  1 
 642.681472   5.64164   21.7180  107.1174   54.5668   146.8175   130.9018   0   13  1 
 643.184788   5.63048   21.7154  107.2836   54.6921   146.7777   130.6464   0   13  1 
 643.688104   5.62041   21.7120  107.4351   54.8044   149.1010   132.0328   0   13  1 
 644.191420   5.60888   21.7147  107.6008   54.9369   156.4697   137.2440   0   13  1 
 644.694736   5.59884   21.7108  107.7539   55.0486   170.2310   148.0826   0   13  1 
 645.198052   5.58751   21.7131  107.9191   55.1781   187.3325   162.8327   0   13  1 
 645.701368   5.57915   21.7161  108.0389   55.2748   201.1978   175.5109   0   13  1 
 646.204684   5.56783   21.7146  108.2104   55.4020   204.6286   180.3246   0   13  1 
 646.708000   5.55282   21.7138  108.4347   55.5707   195.5711   174.1600   0   13  1 
 647.211316   5.54641   21.7149  108.5322   55.6442   179.0073   160.6244   0   13  1 
 647.714632   5.53649   21.7128  108.6854   55.7550   162.4001   146.1776   0   13  1 
 648.217948   5.52513   21.7151  108.8551   55.8840   151.4409   135.8844   0   13  1 
 648.721264   5.51030   21.7138  109.0824   56.0498   147.2319   131.2435   0   13  1 
 649.224580   5.50353   21.7118  109.1909   56.1252   146.8727   130.6189   0   13  1 
 649.727896   5.49344   21.7122  109.3464   56.2388   147.3238   130.7973   0   13  1 
 650.231212   5.48279   21.7151  109.5080   56.3599   147.5059   131.0483   0   13  1 
 650.734528   5.46740   21.7138  109.7482   56.5317   147.1881   130.9699   0   13  1 
 651.237844   5.46147   21.7143  109.8424   56.5985   146.8028   130.6905   0   13  1 
 651.741160   5.44860   21.7145  110.0446   56.7423   146.6124   130.4522   0   13  1 
 652.244476   5.43945   21.7145  110.1902   56.8449   146.6469   130.3166   0   13  1 
 652.747792   5.42767   21.7141  110.3772   56.9761   146.5565   130.3004   0   13  1 
 653.251108   5.41880   21.7129  110.5229   57.0746   146.7686   130.5140   0   13  1 
 653.754424   5.40588   21.7138  110.7277   57.2185   146.9133   130.5645   0   13  1 
 654.257740   5.39712   21.7140  110.8691   57.3159   147.0052   130.6117   0   13  0 
 654.761056   5.38496   21.7180  111.0608   57.4537   146.9857   130.5753   0   13  0 
 655.264372   5.41886   21.8772  110.2908   57.1815   147.0906   130.5983   0   13  0 
 655.767688   5.42457   21.9979  110.0257   57.1940   147.1365   130.6803   0   14  0 
 656.271004   5.41681   21.8686  110.3409   57.2014   147.1209   130.5079   0   14  1 
 656.774320   5.41625   21.8627  110.3595   57.2052   147.1232   130.5377   0   14  1 
 657.277636   5.41574   21.8670  110.3641   57.2152   147.1145   130.5351   0   14  1 
 657.780952   5.42004   21.8602  110.3084   57.1646   146.8881   130.4659   0   14  1 
 658.284268   5.47206   21.9416  109.3755   56.6427   146.8736   130.3736   0   14  1 
 658.787584   5.46918   21.8204  109.6023   56.6014   146.9966   130.6475   0   14  1 
 659.290900   5.47975   21.8701  109.3699   56.5161   147.3106   130.8655   0   14  1 
 659.794216   5.49108   21.8772  109.1871   56.3958   147.6452   130.8639   0   14  1 
 660.297532   5.50157   21.8496  109.0697   56.2645   147.4845   130.9077   0   14  1 
 660.800848   5.51308   21.8515  108.8942   56.1395   146.9440   130.5556   0   14  1 
 661.304164   5.52430   21.8677  108.7042   56.0264   147.9814   131.6276   0   14  1 
 661.807480   5.53347   21.8673  108.5688   55.9254   154.5232   137.5847   0   14  1 
 662.310796   5.54534   21.8608  108.4027   55.7907   169.6344   151.0302   0   14  1 
 662.814112   5.55447   21.8649  108.2638   55.6934   192.4919   170.7172   0   14  1 
 663.317428   5.56680   21.8663  108.0809   55.5577   215.2638   190.0658   0   14  1 
 663.820744   5.57588   21.8644  107.9518   55.4568   228.1356   200.1623   0   14  1 
 664.324060   5.58652   21.8629  107.8001   55.3387   224.2870   195.6825   0   14  1 
 664.827376   5.59648   21.8646  107.6539   55.2299   205.9593   179.0717   0   14  1 
 665.330692   5.60799   21.8664  107.4858   55.1030   182.0625   158.4540   0   14  1 
 665.834008   5.61777   21.8653  107.3476   54.9940   162.2110   142.0823   0   14  1 
 666.337324   5.62949   21.8645  107.1825   54.8642   150.8891   133.4119   0   14  1 
 666.840640   5.63935   21.8656  107.0408   54.7557   146.8984   130.7828   0   14  1 
 667.343956   5.65066   21.8629  106.8853   54.6286   146.5271   130.7137   0   14  1 
 667.847272   5.66026   21.8641  106.7493   54.5229   146.7985   130.9097   0   14  1 
 668.350588   5.67182   21.8639  106.5874   54.3940   146.5398   130.8967   0   14  1 
 668.853904   5.68295   21.8638  106.4328   54.2701   146.3495   130.6374   0   14  1 
 669.357220   5.69336   21.8638  106.2885   54.1542   146.3199   130.5345   0   14  1 
 669.860536   5.70435   21.8629  106.1376   54.0312   146.3271   130.4738   0   14  1 
 670.363852   5.71487   21.8660  105.9897   53.9161   146.2626   130.3634   0   14  1 
 670.867168   5.72596   21.8663  105.8370   53.7921   146.2531   130.6161   0   14  1 
 671.370484   5.73614   21.8640  105.7017   53.6773   146.4388   130.6829   0   14  1 
 671.873800   5.74858   21.8648  105.5317   53.5385   146.4214   130.6553   0   14  1 
 672.377116   5.75731   21.8632  105.4164   53.4405   146.3844   130.7291   0   14  0 
 672.880432   5.76541   21.8700  105.2987   53.3540   146.5611   130.7383   0   14  0 
 673.383748   5.71940   22.1446  105.5543   54.0369   146.5370   130.8200   0   14  0 
 673.887064   5.73246   22.0462  105.5119   53.8336   146.4237   130.7557   0   14  0 
 674.390380   5.73304   22.0273  105.5320   53.8176   146.4032   130.5964   0   15  1 
 674.893696   5.73398   22.0256  105.5229   53.8075   146.5269   130.6917   0   15  1 
 675.397012   5.73432   22.0222  105.5249   53.8029   146.5851   130.6348   0   15  1 
 675.900328   5.73459   22.0169  105.5306   53.7986   146.5067   130.5652   0   15  1 
 676.403644   5.69328   22.0344  106.0778   54.2776   146.5380   130.6229   0   15  1 
 676.906960   5.68719   22.0110  106.1994   54.3342   146.6065   130.6548   0   15  1 
 677.410276   5.67467   22.0237  106.3599   54.4846   146.7282   130.5470   0   15  1 
 677.913592   5.66485   22.0273  106.4951   54.5989   146.9711   130.8163   0   15  1 
 678.416908   5.65372   22.0218  106.6629   54.7223   147.2389   130.9219   0   15  1 
 678.920224   5.64472   22.0228  106.7920   54.8254   146.9790   130.6930   0   15  1 
 679.423540   5.63189   22.0179  106.9840   54.9688   147.0789   130.5891   0   15  1 
 679.926856   5.62371   22.0146  107.1085   55.0600   150.0924   132.8599   0   15  1 
 680.430172   5.61056   22.0170  107.2970   55.2110   160.3952   141.3180   0   15  1 
 680.933488   5.59883   22.0135  107.4747   55.3423   180.0554   158.0553   0   15  1 
 681.436804   5.58910   22.0137  107.6180   55.4524   206.2864   180.6043   0   15  1 
 681.940120   5.58051   22.0097  107.7510   55.5479   229.4475   200.5248   0   15  1 
 682.443436   5.56758   22.0138  107.9382   55.6967   238.3991   208.5953   0   15  1 
 682.946752   5.55906   22.0154  108.0637   55.7940   228.8608   200.4787   0   15  1 
 683.450068   5.54624   22.0156  108.2564   55.9391   205.4226   180.2638   0   15  1 
 683.953384   5.53789   22.0154  108.3826   56.0336   178.9563   157.5149   0   15  1 
 684.456700   5.52505   22.0157  108.5780   56.1785   159.3250   140.8573   0   15  1 
 684.960016   5.51460   22.0154  108.7379   56.2962   149.6466   132.6141   0   15  1 
 685.463332   5.50380   22.0154  108.9036   56.4176   146.8057   130.6481   0   15  1 
 685.966648   5.49300   22.0117  109.0756   56.5374   146.9799   130.9642   0   15  1 
 686.469964   5.48210   22.0137  109.2419   56.6609   147.2382   131.1628   0   15  1 
 686.973280   5.47293   22.0137  109.3848   56.7641   147.1940   130.9358   0   15  1 
 687.476596   5.46120   22.0158  109.5659   56.8967   146.8606   130.4169   0   15  1 
 687.979912   5.45037   22.0159  109.7357   57.0182   146.7152   130.2752   0   15  1 
 688.483228   5.43985   22.0156  109.9032   57.1358   146.7789   130.2490   0   15  1 
 688.986544   5.42900   22.0149  110.0763   57.2568   146.8039   130.4849   0   15  1 
 689.489860   5.41969   22.0135  110.2277   57.3606   146.8711   130.5333   0   15  1 
 689.993176   5.40816   22.0137  110.4129   57.4891   146.9825   130.6021   0   15  1 
 690.496492   5.39719   22.0137  110.5898   57.6111   146.9532   130.7720   0   15  0 
 690.999808   5.38638   22.0162  110.7616   57.7329   146.9279   130.8241   0   15  0 
 691.503124   5.42280   21.9573  110.2689   57.2972   147.0562   130.7790   0   15  0 
 692.006440   5.41987   22.2012  109.9595   57.4805   147.0794   130.7013   0   15  0 
 692.509756   5.41610   22.1723  110.0641   57.5059   147.1893   130.6473   0   16  1 
 693.013072   5.41618   22.1633  110.0787   57.5011   147.0767   130.6929   0   16  1 
 693.516388   5.41582   22.1647  110.0843   57.5074   147.1533   130.6433   0   16  1 
 694.019704   5.41590   22.1676  110.0815   57.5099   147.0716   130.5970   0   16  1 
 694.523020   5.45595   22.1093  109.5389   57.0337   146.7988   130.5040   0   16  1 
 695.026336   5.47889   22.3007  108.9017   56.8974   146.7232   130.5365   0   16  1 
 695.529652   5.47544   22.1537  109.1791   56.8474   146.9671   130.7222   0   16  1 
 696.032968   5.48877   22.1482  108.9842   56.6975   147.2283   131.1385   0   16  1 
 696.536284   5.49668   22.1605  108.8486   56.6182   147.2370   131.2958   0   16  1 
 697.039600   5.50810   22.1629  108.6737   56.4948   146.7688   131.0726   0   16  1 
 697.542916   5.51819   22.1659  108.5194   56.3857   147.0424   130.9258   0   16  1 
 698.046232   5.52754   22.1695  108.3751   56.2849   151.1375   133.7571   0   16  1 
 698.549548   5.53973   22.1610  108.2076   56.1457   162.9975   143.1877   0   16  1 
 699.052864   5.54812   22.1652  108.0772   56.0557   183.4151   160.1793   0   16  1 
 699.556180   5.56078   22.1637  107.8943   55.9152   207.0779   180.8339   0   16  1 
 700.059496   5.57132   22.1646  107.7394   55.7994   224.5524   196.5837   0   16  1 
 700.562812   5.58175   22.1646  107.5887   55.6841   227.5221   199.9803   0   16  1 
 701.066128   5.59276   22.1667  107.4267   55.5638   214.4305   189.5119   0   16  1 
 701.569444   5.60317   22.1644  107.2808   55.4472   191.5621   170.0342   0   16  1 
 702.072760   5.61414   22.1641  107.1237   55.3255   169.1299   150.5603   0   16  1 
 702.576076   5.62598   22.1650  106.9537   55.1945   154.2702   137.4087   0   16  1 
 703.079392   5.63559   22.1645  106.8187   55.0877   148.0453   131.7013   0   16  1 
 703.582708   5.64529   22.1662  106.6798   54.9810   146.8572   130.6626   0   16  1 
 704.086024   5.65545   22.1596  106.5469   54.8644   147.1009   131.0166   0   16  1 
 704.589340   5.66899   22.1656  106.3480   54.7170   147.2426   131.0790   0   16  1 
 705.092656   5.67873   22.1658  106.2122   54.6087   146.9851   130.8639   0   16  1 
 705.595972   5.68896   22.1661  106.0710   54.4950   146.7847   130.7415   0   16  1 
 706.099288   5.69979   22.1647  105.9225   54.3736   146.6598   130.6323   0   16  1 
 706.602604   5.71035   22.1660  105.7760   54.2563   146.5860   130.6600   0   16  1 
 707.105920   5.72133   22.1644  105.6286   54.1329   146.6225   130.7180   0   16  1 
 707.609236   5.73242   22.1672  105.4734   54.0106   146.7322   130.8245   0   16  1 
 708.112552   5.74281   22.1641  105.3367   53.8928   146.6271   130.7989   0   16  1 
 708.615868   5.75321   22.1656  105.1944   53.7772   146.4153   130.8652   0   16  0 
 709.119184   5.76507   22.1671  105.0324   53.6452   146.6033   130.8699   0   16  0 
 709.622500   5.72013   22.3350  105.4164   54.2534   146.4632   130.9099   0   16  0 
 710.125816   5.72951   22.3524  105.2660   54.1589   146.5184   130.9691   0   16  0 
 710.629132   5.73519   22.2867  105.2813   54.0573   146.4337   130.9501   0   17  1 
 711.132448   5.73328   22.3343  105.2426   54.1086   146.6122   130.9300   0   17  1 
 711.635764   5.73427   22.3236  105.2462   54.0927   146.6121   131.0311   0   17  1 
 712.139080   5.73443   22.3220  105.2480   54.0915   146.7320   130.9163   0   17  1 
 712.642396   5.70116   22.3209  105.7093   54.4697   146.6213   130.5230   0   17  1 
 713.145712   5.68501   22.3182  105.9411   54.6520   146.6696   130.6731   0   17  1 
 713.649028   5.67681   22.3071  106.0747   54.7398   146.7967   130.6102   0   17  1 
 714.152344   5.66067   22.3460  106.2476   54.9461   147.0844   130.6692   0   17  1 
 714.655660   5.65343   22.3217  106.3871   55.0152   147.4325   130.9399   0   17  1 
 715.158976   5.64304   22.3189  106.5409   55.1322   147.3927   130.5752   0   17  1 
 715.662292   5.63403   22.3180  106.6734   55.2349   146.9556   130.4083   0   17  1 
 716.165608   5.62155   22.3182  106.8543   55.3770   147.8460   131.7112   0   17  1 
 716.668924   5.61144   22.3158  107.0052   55.4910   152.9959   136.7661   0   17  1 
 717.172240   5.60009   22.3156  107.1720   55.6196   164.6591   147.5941   0   17  1 
 717.675556   5.58961   22.3169  107.3252   55.7394   181.2736   162.0693   0   17  1 
 718.178872   5.58123   22.3123  107.4555   55.8326   196.8748   175.0641   0   17  1 
 718.682188   5.56936   22.3142  107.6297   55.9680   204.2790   180.2362   0   17  1 
 719.185504   5.55778   22.3118  107.8056   56.0978   199.6042   174.5653   0   17  1 
 719.688820   5.54729   22.3156  107.9585   56.2192   184.9652   160.6284   0   17  1 
 720.192136   5.53624   22.3150  108.1258   56.3437   167.7877   146.1530   0   17  1 
 720.695452   5.52652   22.3173  108.2708   56.4551   154.9526   135.8700   0   17  1 
 721.198768   5.51499   22.3142  108.4508   56.5833   148.4379   131.2884   0   17  1 
 721.702084   5.50449   22.3158  108.6095   56.7027   146.5735   130.6285   0   17  1 
 722.205400   5.49345   22.3152  108.7798   56.8269   146.7635   131.1210   0   17  1 
 722.708716   5.48302   22.3164  108.9403   56.9454   146.9245   131.0907   0   17  1 
 723.212032   5.47392   22.3127  109.0881   57.0456   146.8387   130.7817   0   17  1 
 723.715348   5.46141   22.3140  109.2813   57.1867   146.6978   130.4735   0   17  1 
 724.218664   5.45246   22.3152  109.4201   57.2877   146.6234   130.4051   0   17  1 
 724.721980   5.44000   22.3158  109.6159   57.4282   146.6286   130.3570   0   17  1 
 725.225296   5.43129   22.3163  109.7542   57.5257   146.5952   130.5058   0   17  1 
 725.728612   5.41868   22.3151  109.9565   57.6664   146.6689   130.5447   0   17  1 
 726.231928   5.40918   22.3161  110.1083   57.7736   146.6666   130.4287   0   17  1 
 726.735244   5.39810   22.3167  110.2860   57.8973   146.7319   130.5892   0   17  0 
 727.238560   5.38862   22.3171  110.4397   58.0041   146.7780   130.6775   0   17  0 
 727.741876   5.40745   22.2590  110.2285   57.7617   146.8974   130.7333   0   17  0 
 728.245192   5.42340   22.5988  109.4701   57.7944   147.0787   130.5636   0   17  0 
 728.748508   5.41504   22.4536  109.8220   57.7997   146.9383   130.6967   0   18  1 
 729.251824   5.41583   22.4672  109.7914   57.8008   146.9950   130.6412   0   18  1 
 729.755140   5.41589   22.4658  109.7943   57.8009   147.0364   130.5579   0   18  1 
 730.258456   5.41579   22.4662  109.7980   57.8036   147.0082   130.5598   0   18  1 
 730.761772   5.45466   22.4101  109.2721   57.3413   146.9088   130.5873   0   18  1 
 731.265088   5.48869   22.6355  108.4086   57.1016   146.8144   130.4808   0   18  1 
 731.768404   5.47378   22.4503  108.9240   57.1564   146.9876   130.5333   0   18  1 
 732.271720   5.48684   22.4523  108.7226   57.0137   146.8763   130.8149   0   18  1 
 732.775036   5.49532   22.4627  108.5802   56.9270   146.9857   131.0492   0   18  1 
 733.278352   5.50724   22.4601  108.4046   56.7945   146.8240   131.0613   0   18  1 
 733.781668   5.51620   22.4605  108.2719   56.6963   146.6761   130.8743   0   18  1 
 734.284984   5.52884   22.4639  108.0788   56.5588   147.8018   131.2732   0   18  1 
 734.788300   5.53739   22.4674  107.9478   56.4669   151.8306   133.7069   0   18  1 
 735.291616   5.55013   22.4644  107.7643   56.3240   159.3690   139.5425   0   18  1 
 735.794932   5.56076   22.4676  107.6049   56.2088   168.8369   147.8925   0   18  1 
 736.298248   5.57015   22.4649  107.4724   56.1034   176.0276   155.1085   0   18  1 
 736.801564   5.58181   22.4661  107.3012   55.9750   176.8918   157.5098   0   18  1 
 737.304880   5.59156   22.4655  107.1619   55.8667   170.8695   153.5897   0   18  1 
 737.808196   5.60326   22.4667  106.9922   55.7373   161.6043   145.5612   0   18  1 
 738.311512   5.61254   22.4651  106.8629   55.6339   153.1925   137.7407   0   18  1 
 738.814828   5.62439   22.4658  106.6924   55.5026   148.2365   132.6511   0   18  1 
 739.318144   5.63352   22.4663  106.5640   55.4018   146.8911   130.6438   0   18  1 
 739.821460   5.64748   22.4655  106.3673   55.2450   147.0472   130.4701   0   18  1 
 740.324776   5.65497   22.4641  106.2647   55.1619   147.1530   130.8127   0   18  1 
 740.828092   5.66610   22.4671  106.1048   55.0394   147.0073   130.9501   0   18  1 
 741.331408   5.67618   22.4655  105.9665   54.9259   146.8719   130.6918   0   18  1 
 741.834724   5.69056   22.4638  105.7705   54.7641   146.5869   130.7608   0   18  1 
 742.338040   5.69777   22.4655  105.6687   54.6855   146.6056   130.6003   0   18  1 
 742.841356   5.70901   22.4662  105.5140   54.5600   146.7026   130.4931   0   18  1 
 743.344672   5.71875   22.4649  105.3832   54.4506   146.7953   130.7666   0   18  1 
 743.847988   5.73129   22.4653  105.2115   54.3100   146.8514   130.8215   0   18  1 
 744.351304   5.74303   22.4663  105.0506   54.1789   146.9111   130.8594   0   18  1 
 744.854620   5.75247   22.4662  104.9247   54.0733   146.9156   130.7497   0   18  0 
 745.357936   5.76110   22.4702  104.8034   53.9794   146.9059   130.8205   0   18  0 
 745.861252   5.73968   22.5248  105.0215   54.2554   146.8561   130.7282   0   18  0 
 746.364568   5.72994   22.6434  104.9894   54.4359   147.0160   130.8609   0   18  0 
 746.867884   5.73358   22.6296  104.9608   54.3885   146.9630   130.6928   0   19  1 
 747.371200   5.73348   22.6181  104.9810   54.3842   146.9463   130.9353   0   19  1 
 747.874516   5.73404   22.6175  104.9756   54.3792   146.9248   130.9435   0   19  1 
 748.377832   5.73421   22.6223  104.9680   54.3814   146.9100   130.8039   0   19  1 
 748.881148   5.70642   22.6253  105.3473   54.7004   146.7185   130.6141   0   19  1 
 749.384464   5.68093   22.5243  105.8466   54.9322   146.7125   130.5556   0   19  1 
 749.887780   5.67567   22.6323  105.7702   55.0557   146.6618   130.6393   0   19  1 
 750.391096   5.66575   22.6394  105.9014   55.1733   146.9528   130.6358   0   19  1 
 750.894412   5.65487   22.6234  106.0800   55.2888   147.2484   130.7997   0   19  1 
 751.397728   5.64486   22.6157  106.2349   55.3988   147.3523   130.7892   0   19  1 
 751.901044   5.63306   22.6188  106.4005   55.5351   147.1877   130.6804   0   19  1 
 752.404360   5.62459   22.6180  106.5259   55.6319   146.9551   130.4860   0   19  1 
 752.907676   5.61172   22.6176  106.7130   55.7779   146.9218   131.0935   0   19  1 
 753.410992   5.60232   22.6143  106.8553   55.8838   148.4328   133.1218   0   19  1 
 753.914308   5.58999   22.6167  107.0332   56.0250   151.6918   136.5186   0   19  1 
 754.417624   5.58139   22.6157  107.1622   56.1224   155.5265   139.5291   0   19  1 
 754.920940   5.56851   22.6175  107.3506   56.2697   157.6635   140.5480   0   19  1 
 755.424256   5.56082   22.6164  107.4672   56.3566   157.0200   139.0457   0   19  1 
 755.927572   5.54750   22.6141  107.6704   56.5065   154.1218   135.9167   0   19  1 
 756.430888   5.53734   22.6143  107.8235   56.6219   150.3476   132.7743   0   19  1 
 756.934204   5.52618   22.6153  107.9912   56.7487   147.8527   130.9951   0   19  1 
 757.437520   5.51657   22.6155  108.1364   56.8576   146.7621   130.7923   0   19  1 
 757.940836   5.50566   22.6177  108.3011   56.9822   146.7549   130.9684   0   19  1 
 758.444152   5.49446   22.6150  108.4775   57.1072   146.7805   131.1970   0   19  1 
 758.947468   5.48424   22.6164  108.6332   57.2232   146.7460   130.9331   0   19  1 
 759.450784   5.47202   22.6146  108.8256   57.3603   146.7800   130.5335   0   19  1 
 759.954100   5.46260   22.6157  108.9716   57.4666   146.7800   130.4825   0   19  1 
 760.457416   5.45179   22.6131  109.1448   57.5866   146.7531   130.4041   0   19  1 
 760.960732   5.44099   22.6146  109.3133   57.7088   146.7617   130.5142   0   19  1 
 761.464048   5.43013   22.6155  109.4839   57.8316   146.8297   130.4389   0   19  1 
 761.967364   5.42142   22.6164  109.6217   57.9302   147.0911   130.3519   0   19  1 
 762.470680   5.40831   22.6170  109.8308   58.0770   147.0747   130.2914   0   19  1 
 762.973996   5.39816   22.6173  109.9938   58.1907   146.9977   130.3984   0   19  1 
 763.477312   5.38694   22.6188  110.1737   58.3170   146.9808   130.4868   0   19  0 
 763.980628   5.41418   22.5661  109.8216   57.9860   147.1788   130.4727   0   19  0 
 764.483944   5.42436   23.0095  108.9917   58.1422   147.1917   130.6640   0   19  0 
 764.987260   5.41277   22.7771  109.5297   58.1322   147.3359   130.6299   0   20  1 
 765.490576   5.41478   22.7710  109.5091   58.1073   147.1985   130.4129   0   20  1 
 765.993892   5.41554   22.7686  109.5031   58.0990   147.1550   130.5810   0   20  1 
 766.497208   5.41583   22.7698  109.4991   58.0981   147.2574   130.4789   0   20  1 
 767.000524   5.41626   22.7685  109.4964   58.0938   147.0726   130.5250   0   20  1 
 767.503840   5.48019   22.7584  108.5117   57.3806   147.0273   130.3916   0   20  1 
 768.007156   5.47137   22.7629  108.6505   57.4819   147.0696   130.4897   0   20  1 
 768.510472   5.48237   22.7579  108.4906   57.3582   146.8648   130.5470   0   20  1 
 769.013788   5.49503   22.7795  108.2684   57.2319   147.0340   130.5776   0   20  1 
 769.517104   5.50389   22.7540  108.1737   57.1190   147.0356   130.7968   0   20  1 
 770.020420   5.51545   22.7623  107.9895   56.9963   146.8292   130.8491   0   20  1 
 770.523736   5.52376   22.7733  107.8509   56.9117   146.6473   130.7583   0   20  1 
 771.027052   5.53759   22.7742  107.6446   56.7591   146.7421   130.4191   0   20  1 
 771.530368   5.54648   22.7606  107.5340   56.6531   147.1084   130.5437   0   20  1 
 772.033684   5.55759   22.7669  107.3631   56.5333   147.7751   131.0880   0   20  1 
 772.537000   5.56697   22.7650  107.2290   56.4289   148.3340   131.7857   0   20  1 
 773.040316   5.58055   22.7665  107.0293   56.2786   148.6272   132.2970   0   20  1 
 773.543632   5.58842   22.7618  106.9242   56.1896   148.0585   132.1418   0   20  1 
 774.046948   5.60091   22.7647  106.7411   56.0520   147.1503   131.2756   0   20  1 
 774.550264   5.61348   22.7649  106.5597   55.9117   146.5538   130.5026   0   20  1 
 775.053580   5.62112   22.7656  106.4514   55.8279   146.7374   130.1374   0   20  1 
 775.556896   5.63123   22.7641  106.3106   55.7142   146.9658   130.2671   0   20  1 
 776.060212   5.64378   22.7665  106.1312   55.5760   147.1535   130.5778   0   20  1 
 776.563528   5.65487   22.7674  105.9736   55.4530   147.0296   130.5927   0   20  1 
 777.066844   5.66291   22.7673  105.8635   55.3637   146.8242   130.3666   0   20  1 
 777.570160   5.67620   22.7642  105.6822   55.2131   146.5472   130.2391   0   20  1 
 778.073476   5.68669   22.7660  105.5351   55.0968   146.5496   130.2412   0   20  1 
 778.576792   5.69715   22.7657  105.3915   54.9797   146.4514   130.1566   0   20  1 
 779.080108   5.70555   22.7632  105.2802   54.8844   146.5078   130.2705   0   20  1 
 779.583424   5.71860   22.7661  105.0975   54.7402   146.5036   130.3885   0   20  1 
 780.086740   5.72968   22.7670  104.9463   54.6162   146.6370   130.6365   0   20  1 
 780.590056   5.73988   22.7672  104.8082   54.5020   146.7779   130.6762   0   20  1 
 781.093372   5.75015   22.7670  104.6705   54.3870   146.5326   130.5643   0   20  1 
 781.596688   5.76166   22.7666  104.5175   54.2572   146.5585   130.5692   0   20  0 
 782.100004   5.73503   22.7995  104.8346   54.5804   146.7873   130.6032   0   20  0 
 782.603320   5.72532   22.9396  104.7705   54.7725   146.7514   130.5718   0   20  0 
 783.106636   5.73712   22.9877  104.5436   54.6673   146.6162   130.5633   0   20  0 
 783.609952   5.73392   22.9152  104.6918   54.6642   146.5984   130.6414   0   21  1 
 784.113268   5.73369   22.9324  104.6722   54.6777   146.4867   130.6947   0   21  1 
 784.616584   5.73440   22.9188  104.6838   54.6638   146.4915   130.6830   0   21  1 
 785.119900   5.73435   22.9431  104.6522   54.6793   146.5402   130.6270   0   21  1 
 785.623216   5.68476   22.8193  105.5132   55.1738   146.6400   130.4863   0   21  1 
 786.126532   5.68078   22.9400  105.3984   55.2891   146.8679   130.4383   0   21  1 
 786.629848   5.67170   22.9226  105.5523   55.3837   146.8192   130.3822   0   21  1 
 787.133164   5.66113   22.9500  105.6642   55.5204   146.8803   130.5100   0   21  1 
 787.636480   5.65078   22.9191  105.8566   55.6216   147.0969   130.4405   0   21  1 
 788.139796   5.64038   22.9134  106.0150   55.7379   147.1159   130.4673   0   21  1 
 788.643112   5.62872   22.9191  106.1741   55.8738   147.3526   130.4756   0   21  1 
 789.146428   5.61753   22.9136  106.3436   55.9989   147.3849   130.4243   0   21  1 
 789.649744   5.60612   22.9147  106.5089   56.1292   147.2277   130.3408   0   21  1 
 790.153060   5.59630   22.9179  106.6478   56.2435   146.9892   130.2888   0   21  1 
 790.656376   5.58533   22.9152  106.8137   56.3670   146.8845   130.2695   0   21  1 
 791.159692   5.57440   22.9177  106.9708   56.4930   147.0091   130.2541   0   21  1 
 791.663008   5.56385   22.9159  107.1315   56.6120   147.0699   130.3396   0   21  1 
 792.166324   5.55290   22.9148  107.2954   56.7357   146.8455   130.5363   0   21  1 
 792.669640   5.54246   22.9172  107.4496   56.8559   146.6967   130.5612   0   21  1 
 793.172956   5.53352   22.9130  107.5909   56.9547   146.7570   130.8663   0   21  1 
 793.676272   5.52079   22.9149  107.7807   57.0998   146.7903   130.9349   0   21  1 
 794.179588   5.51052   22.9127  107.9412   57.2154   146.7440   130.9055   0   21  1 
 794.682904   5.49969   22.9151  108.1025   57.3392   146.6921   130.8304   0   21  1 
 795.186220   5.48839   22.9171  108.2741   57.4684   146.5806   130.7333   0   21  1 
 795.689536   5.47822   22.9174  108.4314   57.5833   146.6608   130.4920   0   21  1 
 796.192852   5.46455   22.9185  108.6410   57.7381   146.7987   130.4521   0   21  1 
 796.696168   5.45681   22.9147  108.7693   57.8235   146.8374   130.3064   0   21  1 
 797.199484   5.44330   22.9155  108.9802   57.9759   146.8291   130.1950   0   21  1 
 797.702800   5.43536   22.9140  109.1084   58.0643   147.0039   130.3372   0   21  1 
 798.206116   5.42428   22.9148  109.2831   58.1895   147.0273   130.3134   0   21  1 
 798.709432   5.41462   22.9146  109.4385   58.2979   147.1050   130.3701   0   21  1 
 799.212748   5.40349   22.9161  109.6149   58.4234   147.0935   130.5480   0   21  1 
 799.716064   5.39464   22.9181  109.7551   58.5239   147.0132   130.5269   0   21  0 
 800.219380   5.38577   22.9102  109.9116   58.6190   147.1360   130.4806   0   21  0 
 800.722696   5.42172   23.2214  108.8651   58.4097   147.2610   130.3018   0   21  0 
 801.226012   5.41809   23.0696  109.1585   58.3601   147.3329   130.3365   0   22  0 
 801.729328   5.41558   23.0662  109.2058   58.3874   147.2594   130.4265   0   22  1 
 802.232644   5.41605   23.0639  109.2033   58.3820   147.2561   130.3613   0   22  1 
 802.735960   5.41606   23.0629  109.2070   58.3828   147.1959   130.4090   0   22  1 
 803.239276   5.44191   23.0287  108.8558   58.0771   147.0418   130.3214   0   22  1 
 803.742592   5.46191   23.0924  108.4511   57.8938   147.0220   130.3069   0   22  1 
 804.245908   5.47560   23.0364  108.3271   57.7101   147.0851   130.3977   0   22  1 
 804.749224   5.48149   23.0399  108.2354   57.6476   147.0253   130.2413   0   22  1 
 805.252540   5.49320   23.0642  108.0222   57.5328   146.7916   130.3047   0   22  1 
 805.755856   5.50816   23.0432  107.8291   57.3549   146.8806   130.4012   0   22  1 
 806.259172   5.51426   23.0622  107.7112   57.2992   146.9147   130.4084   0   22  1 
 806.762488   5.52574   23.0651  107.5370   57.1737   147.0882   130.5393   0   22  1 
 807.265804   5.53560   23.0672  107.3889   57.0662   147.0897   130.6545   0   22  1 
 807.769120   5.54777   23.0641  107.2148   56.9291   147.3177   130.7888   0   22  1 
 808.272436   5.55818   23.0661  107.0603   56.8150   147.3760   130.6132   0   22  1 
 808.775752   5.56955   23.0658  106.8955   56.6887   147.4486   130.5316   0   22  1 
 809.279068   5.58036   23.0649  106.7401   56.5681   147.4717   130.3291   0   22  1 
 809.782384   5.59098   23.0663  106.5858   56.4509   147.5257   130.2066   0   22  1 
 810.285700   5.60034   23.0655  106.4541   56.3468   147.5172   130.2095   0   22  1 
 810.789016   5.61126   23.0667  106.2962   56.2256   147.5117   130.2232   0   22  1 
 811.292332   5.62252   23.0664  106.1376   56.1003   147.3076   130.3660   0   22  1 
 811.795648   5.63283   23.0649  105.9943   55.9846   147.1473   130.2912   0   22  1 
 812.298964   5.64381   23.0675  105.8367   55.8635   146.7184   130.1426   0   22  1 
 812.802280   5.65334   23.0663  105.7052   55.7565   146.6342   130.2282   0   22  1 
 813.305596   5.66513   23.0652  105.5421   55.6241   146.6048   130.2092   0   22  1 
 813.808912   5.67569   23.0675  105.3923   55.5073   146.6498   130.0833   0   22  1 
 814.312228   5.68690   23.0657  105.2415   55.3808   146.6286   130.1431   0   22  1 
 814.815544   5.69511   23.0658  105.1292   55.2894   146.5197   130.0594   0   22  1 
 815.318860   5.70552   23.0659  104.9871   55.1731   146.5292   130.0728   0   22  1 
 815.822176   5.71645   23.0662  104.8374   55.0501   146.6556   130.1070   0   22  1 
 816.325492   5.72811   23.0676  104.6779   54.9203   146.6669   130.2910   0   22  1 
 816.828808   5.73795   23.0644  104.5493   54.8081   146.5709   130.3187   0   22  1 
 817.332124   5.74842   23.0652  104.4078   54.6904   146.5788   130.2931   0   22  1 
 817.835440   5.76154   23.0689  104.2274   54.5452   146.4695   130.2646   0   22  0 
 818.338756   5.74108   23.0943  104.4700   54.7940   146.4967   130.3436   0   22  0 
 818.842072   5.72722   23.2791  104.3954   55.0584   146.5072   130.4342   0   22  0 
 819.345388   5.73056   23.2684  104.3665   55.0157   146.3861   130.4880   0   22  0 
 819.848704   5.73335   23.2249  104.3940   54.9610   146.5059   130.4190   0   23  1 
 820.352020   5.73343   23.2277  104.3905   54.9637   146.5435   130.2507   0   23  1 
 820.855336   5.73426   23.2184  104.3946   54.9500   146.3713   130.3932   0   23  1 
 821.358652   5.73440   23.2178  104.3955   54.9498   146.5142   130.4124   0   23  1 
 821.861968   5.69164   23.2207  104.9771   55.4395   146.5404   130.3550   0   23  1 
 822.365284   5.67057   23.0579  105.5075   55.5879   146.6285   130.2537   0   23  1 
 822.868600   5.67478   23.2228  105.2153   55.6350   146.6039   130.1239   0   23  1 
 823.371916   5.66595   23.2516  105.2985   55.7532   146.6564   130.2008   0   23  1 
 823.875232   5.65396   23.2235  105.5105   55.8746   146.7035   130.3381   0   23  1 
 824.378548   5.64567   23.2144  105.6422   55.9647   146.7528   130.3788   0   23  1 
 824.881864   5.63268   23.2190  105.8218   56.1158   146.8083   130.2156   0   23  1 
 825.385180   5.62338   23.2203  105.9550   56.2237   146.9096   130.2004   0   23  1 
 825.888496   5.60999   23.2173  106.1529   56.3743   146.9446   130.2523   0   23  1 
 826.391812   5.60156   23.2165  106.2779   56.4707   147.2916   130.3346   0   23  1 
 826.895128   5.59057   23.2160  106.4400   56.5960   147.4486   130.3065   0   23  1 
 827.398444   5.57966   23.2170  106.5985   56.7208   147.5515   130.3797   0   23  1 
 827.901760   5.56708   23.2151  106.7874   56.8627   147.6601   130.5316   0   23  1 
 828.405076   5.56023   23.2174  106.8866   56.9432   147.5878   130.7627   0   23  1 
 828.908392   5.54777   23.2185  107.0713   57.0854   147.4379   130.7554   0   23  1 
 829.411708   5.53711   23.2160  107.2347   57.2050   147.2539   130.6171   0   23  1 
 829.915024   5.52782   23.2189  107.3715   57.3125   147.0567   130.5516   0   23  1 
 830.418340   5.51516   23.2164  107.5665   57.4546   146.8770   130.4461   0   23  1 
 830.921656   5.50502   23.2148  107.7244   57.5689   146.6597   130.3818   0   23  1 
 831.424972   5.49534   23.2167  107.8696   57.6794   146.6852   130.1844   0   23  1 
 831.928288   5.48547   23.2158  108.0234   57.7914   146.7504   130.2136   0   23  1 
 832.431604   5.47402   23.2159  108.2004   57.9206   146.7764   130.2521   0   23  1 
 832.934920   5.46218   23.2173  108.3826   58.0548   146.7969   130.2230   0   23  1 
 833.438236   5.45262   23.2163  108.5332   58.1626   146.8405   130.0620   0   23  1 
 833.941552   5.44120   23.2176  108.7114   58.2923   146.8591   130.0807   0   23  1 
 834.444868   5.43152   23.2175  108.8646   58.4008   146.9857   130.2507   0   23  1 
 834.948184   5.42145   23.2167  109.0268   58.5147   147.1351   130.2483   0   23  1 
 835.451500   5.41000   23.2145  109.2121   58.6417   147.2036   130.3270   0   23  1 
 835.954816   5.39791   23.2168  109.4029   58.7785   147.1432   130.2486   0   23  0 
 836.458132   5.38860   23.2171  109.5533   58.8835   147.1749   130.3071   0   23  0 
 836.961448   5.42029   23.2080  109.0667   58.5285   147.3949   130.3862   0   23  0 
 837.464764   5.42426   23.5971  108.4024   58.7167   147.4956   130.3639   0   23  0 
 837.968080   5.41399   23.3563  108.9414   58.6890   147.5015   130.3893   0   24  1 
 838.471396   5.41615   23.3609  108.9029   58.6695   147.4214   130.4913   0   24  1 
 838.974712   5.41590   23.3654  108.9015   58.6765   147.4114   130.4655   0   24  1 
 839.478028   5.41620   23.3660  108.8980   58.6751   147.5093   130.3823   0   24  1 
 839.981344   5.41835   23.3655  108.8677   58.6524   147.3910   130.3855   0   24  1 
 840.484660   5.47554   23.4264  107.8832   58.0540   147.1516   130.2157   0   24  1 
 840.987976   5.47217   23.3522  108.0567   58.0480   146.9728   130.1657   0   24  1 
 841.491292   5.48067   23.3825  107.8821   57.9722   146.9763   130.1685   0   24  1 
 841.994608   5.49443   23.3581  107.7119   57.8056   146.9714   130.2230   0   24  1 
 842.497924   5.50467   23.3628  107.5530   57.6953   146.9009   130.3879   0   24  1 
 843.001240   5.51593   23.3474  107.4087   57.5620   146.8510   130.2839   0   24  1 
 843.504556   5.52649   23.3684  107.2213   57.4571   146.8906   130.3397   0   24  1 
 844.007872   5.53473   23.3674  107.1022   57.3656   146.9017   130.5785   0   24  1 
 844.511188   5.54721   23.3655  106.9222   57.2258   147.0562   130.5256   0   24  1 
 845.014504   5.55770   23.3659  106.7692   57.1096   147.1956   130.7491   0   24  1 
 845.517820   5.56964   23.3678  106.5917   56.9776   147.3439   130.8291   0   24  1 
 846.021136   5.57884   23.3665  106.4632   56.8750   147.2671   130.7375   0   24  1 
 846.524452   5.58954   23.3665  106.3095   56.7557   147.3220   130.5598   0   24  1 
 847.027768   5.60047   23.3675  106.1519   56.6348   147.1546   130.4439   0   24  1 
 847.531084   5.61020   23.3657  106.0160   56.5254   147.0229   130.1946   0   24  1 
 848.034400   5.62192   23.3681  105.8469   56.3958   146.9198   130.2124   0   24  1 
 848.537716   5.63539   23.3691  105.6563   56.2460   146.6786   130.2563   0   24  1 
 849.041032   5.64337   23.3681  105.5463   56.1563   146.7959   130.3481   0   24  1 
 849.544348   5.65330   23.3670  105.4092   56.0450   146.7252   130.4367   0   24  1 
 850.047664   5.66473   23.3658  105.2526   55.9160   146.6820   130.4273   0   24  1 
 850.550980   5.67831   23.3681  105.0613   55.7650   146.7041   130.5108   0   24  1 
 851.054296   5.68622   23.3675  104.9542   55.6765   146.8210   130.4352   0   24  1 
 851.557612   5.69570   23.3678  104.8229   55.5703   146.7781   130.5244   0   24  1 
 852.060928   5.70738   23.3683  104.6642   55.4397   146.8382   130.5228   0   24  1 
 852.564244   5.72095   23.3670  104.4812   55.2857   146.8552   130.5894   0   24  1 
 853.067560   5.72885   23.3665  104.3752   55.1974   146.6926   130.5682   0   24  1 
 853.570876   5.73865   23.3672  104.2434   55.0878   146.7634   130.5101   0   24  1 
 854.074192   5.75042   23.3674  104.0856   54.9555   146.7312   130.4380   0   24  1 
 854.577508   5.76144   23.3668  103.9401   54.8312   146.7107   130.3747   0   24  0 
 855.080824   5.74550   23.3923  104.1202   55.0286   146.7152   130.4346   0   24  0 
 855.584140   5.72432   23.6304  104.0637   55.4055   146.8382   130.4296   0   24  0 
 856.087456   5.73531   23.5047  104.0994   55.2112   146.7947   130.3059   0   25  1 
 856.590772   5.73404   23.5133  104.1054   55.2322   146.8797   130.4318   0   25  1 
 857.094088   5.73417   23.5283  104.0844   55.2406   146.8193   130.4381   0   25  1 
 857.597404   5.73402   23.5345  104.0792   55.2473   146.6177   130.4859   0   25  1 
 858.100720   5.70193   23.5224  104.5361   55.6080   146.7246   130.6666   0   25  1 
 858.604036   5.66416   23.4751  105.1242   56.0133   146.6492   130.6668   0   25  1 
 859.107352   5.67674   23.5316  104.8758   55.9026   146.7526   130.6836   0   25  1 
 859.610668   5.66340   23.5047  105.1028   56.0410   146.6988   130.5459   0   25  1 
 860.113984   5.65566   23.5216  105.1889   56.1393   146.7084   130.6746   0   25  1 
 860.617300   5.65284   23.5311  105.2168   56.1785   146.7352   130.3634   0   25  1 
 861.120616   5.63454   23.5208  105.4926   56.3817   146.7075   130.3522   0   25  1 
 861.623932   5.62423   23.5198  105.6419   56.4989   146.8328   130.2996   0   25  1 
 862.127248   5.61317   23.5189  105.8040   56.6256   146.7394   130.2754   0   25  1 
 862.630564   5.60297   23.5134  105.9596   56.7390   146.7425   130.3112   0   25  1 
 863.133880   5.59173   23.5181  106.1172   56.8704   146.9436   130.3335   0   25  1 
 863.637196   5.58137   23.5166  106.2717   56.9886   147.0940   130.4364   0   25  1 
 864.140512   5.57021   23.5165  106.4366   57.1155   147.1548   130.5039   0   25  1 
 864.643828   5.55930   23.5171  106.5975   57.2405   147.0621   130.5847   0   25  1 
 865.147144   5.54979   23.5170  106.7397   57.3488   146.9334   130.5717   0   25  1 
 865.650460   5.53603   23.5184  106.9434   57.5062   146.8717   130.4616   0   25  1 
 866.153776   5.52866   23.5175  107.0566   57.5899   146.7915   130.4292   0   25  1 
 866.657092   5.51445   23.5174  107.2705   57.7511   146.7772   130.4316   0   25  1 
 867.160408   5.50716   23.5173  107.3830   57.8342   146.7564   130.5004   0   25  1 
 867.663724   5.49308   23.5159  107.5994   57.9932   146.8227   130.3236   0   25  1 
 868.167040   5.48375   23.5183  107.7391   58.1002   146.9526   130.3298   0   25  1 
 868.670356   5.47124   23.5130  107.9397   58.2388   146.9779   130.3156   0   25  1 
 869.173672   5.46475   23.5167  108.0376   58.3147   147.0111   130.3247   0   25  1 
 869.676988   5.45313   23.5173  108.2175   58.4467   147.1015   130.4322   0   25  1 
 870.180304   5.44349   23.5184  108.3674   58.5564   147.1546   130.4214   0   25  1 
 870.683620   5.43177   23.5178  108.5532   58.6883   147.2374   130.3290   0   25  1 
 871.186936   5.42274   23.5175  108.6974   58.7901   147.3492   130.1095   0   25  1 
 871.690252   5.41010   23.5157  108.9007   58.9312   147.2796   130.2331   0   25  1 
 872.193568   5.39975   23.5175  109.0640   59.0488   147.3183   130.3695   0   25  1 
 872.696884   5.38844   23.5164  109.2492   59.1750   147.3002   130.3773   0   25  0 
 873.200200   5.40703   23.4626  109.0408   58.9392   147.4251   130.4711   0   25  0 
 873.703516   5.42390   23.8708  108.1345   58.9934   147.4736   130.5353   0   25  0 
 874.206832   5.41610   23.6768  108.5655   58.9674   147.4795   130.4293   0   26  1 
 874.710148   5.41535   23.6683  108.5926   58.9718   147.5615   130.3476   0   26  1 
 875.213464   5.41584   23.6659  108.5912   58.9666   147.4520   130.4237   0   26  1 
 875.716780   5.41619   23.6649  108.5893   58.9636   147.1998   130.3824   0   26  1 
 876.220096   5.46195   23.6322  107.9280   58.4362   147.1848   130.4333   0   26  1 
 876.723412   5.46655   23.6328  107.8620   58.3863   147.1256   130.4341   0   26  1 
 877.226728   5.47679   23.6568  107.6698   58.2871   147.1999   130.3667   0   26  1 
 877.730044   5.48771   23.6558  107.5069   58.1658   147.1393   130.3031   0   26  1 
 878.233360   5.49754   23.6658  107.3458   58.0629   147.0491   130.2260   0   26  1 
 878.736676   5.50771   23.6591  107.2050   57.9464   146.9420   130.1830   0   26  1 
 879.239992   5.51788   23.6653  107.0452   57.8375   146.8791   130.0973   0   26  1 
 879.743308   5.53322   23.6593  106.8277   57.6634   147.0425   130.3174   0   26  1 
 880.246624   5.53960   23.6630  106.7300   57.5951   147.0942   130.3495   0   26  1 
 880.749940   5.55063   23.6655  106.5650   57.4738   147.0190   130.3070   0   26  1 
 881.253256   5.56092   23.6677  106.4130   57.3605   147.0885   130.2437   0   26  1 
 881.756572   5.57613   23.6641  106.1969   57.1890   147.0996   130.2886   0   26  1 
 882.259888   5.58254   23.6684  106.1010   57.1204   146.9061   130.2095   0   26  1 
 882.763204   5.59449   23.6656  105.9338   56.9856   146.8474   130.3068   0   26  1 
 883.266520   5.60387   23.6699  105.7951   56.8833   146.9514   130.3347   0   26  1 
 883.769836   5.61542   23.6649  105.6380   56.7516   146.8482   130.3076   0   26  1 
 884.273152   5.62469   23.6642  105.5102   56.6478   146.8472   130.2127   0   26  1 
 884.776468   5.63693   23.6686  105.3307   56.5128   146.8277   130.2309   0   26  1 
 885.279784   5.64770   23.6657  105.1858   56.3910   146.9247   130.2703   0   26  1 
 885.783100   5.65797   23.6690  105.0381   56.2772   146.7933   130.3392   0   26  1 
 886.286416   5.66886   23.6664  104.8922   56.1542   146.8470   130.4778   0   26  1 
 886.789732   5.67953   23.6665  104.7442   56.0346   146.8610   130.5185   0   26  1 
 887.293048   5.69035   23.6675  104.5952   55.9138   146.8238   130.4755   0   26  1 
 887.796364   5.70084   23.6675  104.4524   55.7957   146.7904   130.5214   0   26  1 
 888.299680   5.71144   23.6678  104.3085   55.6771   146.7024   130.5348   0   26  1 
 888.802996   5.72172   23.6662  104.1718   55.5604   146.5421   130.3889   0   26  1 
 889.306312   5.73346   23.6641  104.0178   55.4274   146.5838   130.3307   0   26  1 
 889.809628   5.74271   23.6655  103.8914   55.3243   146.6075   130.3463   0   26  1 
 890.312944   5.75483   23.6672  103.7271   55.1883   146.3577   130.3091   0   26  0 
 890.816260   5.76481   23.6708  103.5896   55.0782   146.4072   130.2834   0   26  0 
 891.319576   5.71774   23.8768  103.9262   55.7317   146.4924   130.4096   0   26  0 
 891.822892   5.73058   23.8420  103.8055   55.5671   146.4986   130.4805   0   26  0 
 892.326208   5.73468   23.8169  103.7891   55.5084   146.5476   130.4098   0   26  0 
 892.829524   5.73358   23.8334  103.7809   55.5314   146.5282   130.6092   0   27  1 
 893.332840   5.73437   23.8266  103.7827   55.5203   146.4914   130.5912   0   27  1 
 893.836156   5.73451   23.8222  103.7885   55.5178   146.5818   130.5564   0   27  1 
 894.339472   5.73457   23.8311  103.7762   55.5233   146.6536   130.5625   0   27  1 
 894.842788   5.68775   23.7276  104.5702   56.0016   146.6594   130.5806   0   27  1 
 895.346104   5.68720   23.8119  104.4548   56.0567   146.8834   130.7684   0   27  1 
 895.849420   5.67164   23.8302  104.6450   56.2454   146.8736   130.7303   0   27  1 
 896.352736   5.66399   23.8094  104.7855   56.3220   146.9088   130.6474   0   27  1 
 896.856052   5.64999   23.8154  104.9746   56.4861   146.8956   130.6506   0   27  1 
 897.359368   5.64288   23.8250  105.0619   56.5735   146.8542   130.6267   0   27  1 
 897.862684   5.63114   23.8182  105.2400   56.7048   146.9566   130.6587   0   27  1 
 898.366000   5.62171   23.8153  105.3799   56.8115   146.8025   130.6461   0   27  1 
 898.869316   5.60730   23.8183  105.5839   56.9781   146.8086   130.5933   0   27  1 
 899.372632   5.60036   23.8170  105.6867   57.0573   146.7549   130.4709   0   27  1 
 899.875948   5.58911   23.8186  105.8488   57.1873   146.8136   130.4576   0   27  1 
 900.379264   5.57938   23.8156  105.9966   57.2975   146.8360   130.5261   0   27  1 
 900.882580   5.56472   23.8162  106.2104   57.4644   146.7688   130.5311   0   27  1 
 901.385896   5.55653   23.8161  106.3326   57.5587   146.7027   130.5220   0   27  1 
 901.889212   5.54641   23.8177  106.4811   57.6750   146.8105   130.5189   0   27  1 
 902.392528   5.53367   23.8195  106.6680   57.8207   146.8235   130.3925   0   27  1 
 902.895844   5.52369   23.8175  106.8224   57.9336   146.9032   130.4587   0   27  1 
 903.399160   5.51222   23.8162  106.9978   58.0640   146.8470   130.5191   0   27  1 
 903.902476   5.50358   23.8188  107.1255   58.1639   146.8952   130.4443   0   27  1 
 904.405792   5.49076   23.8185  107.3210   58.3090   146.9130   130.4436   0   27  1 
 904.909108   5.48103   23.8175  107.4735   58.4191   146.9327   130.5030   0   27  1 
 905.412424   5.46964   23.8182  107.6473   58.5488   147.1010   130.3604   0   27  1 
 905.915740   5.46094   23.8155  107.7875   58.6461   146.9864   130.5365   0   27  1 
 906.419056   5.44805   23.8156  107.9884   58.7919   146.9860   130.5666   0   27  1 
 906.922372   5.43814   23.8173  108.1420   58.9052   146.8991   130.4272   0   27  1 
 907.425688   5.42865   23.8173  108.2912   59.0124   146.9826   130.4808   0   27  1 
 907.929004   5.41899   23.8180  108.4437   59.1218   147.0048   130.5742   0   27  1 
 908.432320   5.40725   23.8176  108.6311   59.2546   147.0784   130.4761   0   27  1 
 908.935636   5.39548   23.8191  108.8183   59.3878   147.1016   130.6649   0   27  0 
 909.438952   5.38577   23.8192  108.9740   59.4973   147.1527   130.5815   0   27  0 
 909.942268   5.43255   23.7508  108.3452   58.9381   147.3603   130.8171   0   27  0 
 910.445584   5.42356   24.0942  107.9443   59.2402   147.5070   130.9320   0   27  0 
 910.948900   5.41618   23.9754  108.2528   59.2549   147.5414   130.8950   0   28  1 
 911.452216   5.41592   23.9743  108.2595   59.2584   147.3700   130.7203   0   28  1 
 911.955532   5.41532   23.9727  108.2741   59.2663   147.2596   130.5500   0   28  1 
 912.458848   5.41527   23.9736  108.2760   59.2690   147.2072   130.6054   0   28  1 
 912.962164   5.46714   23.9694  107.4763   58.6885   147.2389   130.4899   0   28  1 
 913.465480   5.46536   23.8967  107.6244   58.6666   147.2520   130.4769   0   28  1 
 913.968796   5.47899   23.9778  107.2913   58.5631   147.2448   130.6190   0   28  1 
 914.472112   5.48776   23.9397  107.2198   58.4440   147.1248   130.4174   0   28  1 
 914.975428   5.50104   23.9521  107.0027   58.3037   147.1134   130.5454   0   28  1 
 915.478744   5.50903   23.9628  106.8679   58.2217   147.0170   130.5905   0   28  1 
 915.982060   5.52200   23.9729  106.6608   58.0830   146.9396   130.7772   0   28  1 
 916.485376   5.53043   23.9662  106.5475   57.9858   146.9594   130.6846   0   28  1 
 916.988692   5.54175   23.9640  106.3867   57.8587   146.9621   130.5766   0   28  1 
 917.492008   5.55221   23.9668  106.2301   57.7438   146.8696   130.5973   0   28  1 
 917.995324   5.56282   23.9696  106.0725   57.6270   146.9883   130.5794   0   28  1 
 918.498640   5.57355   23.9684  105.9199   57.5068   146.9577   130.4913   0   28  1 
 919.001956   5.58411   23.9684  105.7694   57.3888   146.9505   130.5092   0   28  1 
 919.505272   5.59363   23.9697  105.6322   57.2835   146.8559   130.5280   0   28  1 
 920.008588   5.60562   23.9663  105.4673   57.1477   146.7336   130.4268   0   28  1 
 920.511904   5.61721   23.9691  105.2986   57.0192   146.6544   130.2937   0   28  1 
 921.015220   5.62553   23.9648  105.1895   56.9239   146.7047   130.2767   0   28  1 
 921.518536   5.64012   23.9683  104.9792   56.7619   146.6120   130.2691   0   28  1 
 922.021852   5.64825   23.9669  104.8701   56.6702   146.7225   130.2698   0   28  1 
 922.525168   5.65698   23.9689  104.7457   56.5740   146.7339   130.5790   0   28  1 
 923.028484   5.66947   23.9705  104.5721   56.4344   146.6504   130.5963   0   28  1 
 923.531800   5.68042   23.9705  104.4212   56.3115   146.6927   130.5086   0   28  1 
 924.035116   5.68962   23.9638  104.3062   56.2041   146.6780   130.5433   0   28  1 
 924.538432   5.70048   23.9662  104.1554   56.0838   146.6835   130.4644   0   28  1 
 925.041748   5.71165   23.9657  104.0053   55.9578   146.5947   130.4750   0   28  1 
 925.545064   5.72316   23.9681  103.8465   55.8294   146.5730   130.4853   0   28  1 
 926.048380   5.73371   23.9687  103.7043   55.7107   146.5316   130.4824   0   28  1 
 926.551696   5.74645   23.9694  103.5328   55.5673   146.5098   130.4138   0   28  1 
 927.055012   5.75464   23.9689  103.4259   55.4749   146.2512   130.3544   0   28  0 
 927.558328   5.76781   23.9701  103.2489   55.3263   146.4672   130.5740   0   28  0 
 928.061644   5.72629   23.9885  103.7828   55.8136   146.6303   130.5259   0   28  0 
 928.564960   5.73238   24.2123  103.3711   55.8687   146.5542   130.5273   0   28  0 
 929.068276   5.73251   24.1403  103.4777   55.8292   146.4765   130.2799   0   29  1 
 929.571592   5.73302   24.1458  103.4644   55.8281   146.5515   130.2643   0   29  1 
 930.074908   5.73326   24.1428  103.4675   55.8247   146.4293   130.5297   0   29  1 
 930.578224   5.73440   24.1226  103.4840   55.8027   146.4186   130.4969   0   29  1 
 931.081540   5.69209   24.1107  104.0771   56.2808   146.4541   130.4440   0   29  1 
 931.584856   5.67854   24.0265  104.3918   56.3900   146.6385   130.5415   0   29  1 
 932.088172   5.67782   24.1293  104.2517   56.4566   146.7342   130.6814   0   29  1 
 932.591488   5.66442   24.1527  104.4038   56.6238   146.8368   130.5703   0   29  1 
 933.094804   5.65435   24.1233  104.5905   56.7238   146.9234   130.7825   0   29  1 
 933.598120   5.64408   24.1160  104.7474   56.8382   146.8741   130.6943   0   29  1 
 934.101436   5.63546   24.1151  104.8717   56.9369   146.8190   130.6413   0   29  1 
 934.604752   5.62276   24.1210  105.0444   57.0863   146.8339   130.6060   0   29  1 
 935.108068   5.61183   24.1203  105.2036   57.2117   146.8761   130.6444   0   29  1 
 935.611384   5.60189   24.1186  105.3494   57.3248   146.8709   130.7060   0   29  1 
 936.114700   5.59183   24.1208  105.4928   57.4417   146.8139   130.7229   0   29  1 
 936.618016   5.58087   24.1202  105.6534   57.5669   146.7989   130.7287   0   29  1 
 937.121332   5.56912   24.1173  105.8303   57.6998   146.9592   130.7997   0   29  1 
 937.624648   5.55947   24.1181  105.9718   57.8108   146.9594   130.8543   0   29  1 
 938.127964   5.54847   24.1177  106.1353   57.9365   147.0270   130.8544   0   29  1 
 938.631280   5.53659   24.1153  106.3160   58.0710   146.9257   130.8462   0   29  1 
 939.134596   5.52753   24.1170  106.4505   58.1756   147.0013   130.7155   0   29  1 
 939.637912   5.51598   24.1177  106.6224   58.3076   146.8853   130.6864   0   29  1 
 940.141228   5.50567   24.1181  106.7782   58.4255   146.9012   130.6065   0   29  1 
 940.644544   5.49490   24.1181  106.9425   58.5483   146.8526   130.5278   0   29  1 
 941.147860   5.48499   24.1193  107.0925   58.6617   146.8160   130.5356   0   29  1 
 941.651176   5.47047   24.1158  107.3199   58.8243   146.8933   130.4064   0   29  1 
 942.154492   5.46303   24.1195  107.4306   58.9116   146.8366   130.4388   0   29  1 
 942.657808   5.44908   24.1174  107.6494   59.0683   146.9638   130.4990   0   29  1 
 943.161124   5.44207   24.1157  107.7642   59.1474   147.1395   130.4669   0   29  1 
 943.664440   5.42749   24.1162  107.9914   59.3123   147.1650   130.6098   0   29  1 
 944.167756   5.41970   24.1183  108.1122   59.4021   147.2091   130.6054   0   29  1 
 944.671072   5.40907   24.1190  108.2808   59.5229   147.1970   130.4912   0   29  1 
 945.174388   5.39961   24.1183  108.4335   59.6293   147.2247   130.6268   0   29  0 
 945.677704   5.38786   24.1201  108.6188   59.7626   147.1483   130.6121   0   29  0 
 946.181020   5.42186   24.0712  108.1623   59.3573   147.3009   130.7402   0   29  0 
 946.684336   5.42348   24.4675  107.5007   59.5700   147.4498   130.7727   0   29  0 
 947.187652   5.41563   24.2783  107.9327   59.5503   147.5060   130.6271   0   30  1 
 947.690968   5.41626   24.2674  107.9427   59.5378   147.5646   130.5040   0   30  1 
 948.194284   5.41610   24.2676  107.9467   59.5414   147.4285   130.5468   0   30  1 
 948.697600   5.41615   24.2682  107.9472   59.5424   147.3918   130.7058   0   30  1 
 949.200916   5.44539   24.2371  107.5434   59.1991   147.3699   130.5882   0   30  1 
 949.704232   5.48119   24.3385  106.8302   58.8579   147.2694   130.5499   0   30  1 
 950.207548   5.47622   24.2413  107.0694   58.8585   147.2450   130.6740   0   30  1 
 950.710864   5.48455   24.2604  106.9155   58.7774   147.3037   130.5782   0   30  1 
 951.214180   5.49474   24.2576  106.7685   58.6629   147.2202   130.4425   0   30  1 
 951.717496   5.50635   24.2606  106.5918   58.5357   147.1312   130.6185   0   30  1 
 952.220812   5.51603   24.2650  106.4429   58.4306   147.0701   130.6590   0   30  1 
 952.724128   5.52573   24.2650  106.3008   58.3226   147.0814   130.7235   0   30  1 
 953.227444   5.53778   24.2698  106.1172   58.1911   147.2257   130.8072   0   30  1 
 953.730760   5.54681   24.2689  105.9883   58.0900   147.1243   130.7959   0   30  1 
 954.234076   5.55909   24.2681  105.8113   57.9524   147.2007   130.7780   0   30  1 
 954.737392   5.56922   24.2669  105.6680   57.8385   147.2392   130.8266   0   30  1 
 955.240708   5.58048   24.2685  105.5046   57.7139   147.1116   130.8396   0   30  1 
 955.744024   5.58977   24.2685  105.3728   57.6102   147.0289   130.5335   0   30  1 
 956.247340   5.60180   24.2678  105.2032   57.4748   146.9624   130.5488   0   30  1 
 956.750656   5.61070   24.2667  105.0805   57.3749   146.9594   130.5059   0   30  1 
 957.253972   5.62178   24.2683  104.9228   57.2514   147.0276   130.6333   0   30  1 
 957.757288   5.63201   24.2708  104.7767   57.1384   147.0341   130.7731   0   30  1 
 958.260604   5.64371   24.2684  104.6169   57.0053   146.9122   130.6493   0   30  1 
 958.763920   5.65800   24.2695  104.4161   56.8452   146.9618   130.6055   0   30  1 
 959.267236   5.66436   24.2687  104.3321   56.7737   146.8067   130.5263   0   30  1 
 959.770552   5.67556   24.2680  104.1798   56.6473   146.8263   130.5439   0   30  1 
 960.273868   5.68715   24.2674  104.0230   56.5165   146.6944   130.4251   0   30  1 
 960.777184   5.69553   24.2643  103.9138   56.4207   146.6088   130.3794   0   30  1 
 961.280500   5.70839   24.2680  103.7349   56.2774   146.6825   130.2512   0   30  1 
 961.783816   5.71822   24.2663  103.6057   56.1663   146.5281   130.3042   0   30  1 
 962.287132   5.73297   24.2668  103.4053   55.9990   146.5127   130.3788   0   30  1 
 962.790448   5.74142   24.2675  103.2934   55.9043   146.4407   130.2649   0   30  1 
 963.293764   5.75091   24.2697  103.1653   55.7987   146.4788   130.2767   0    0  0 
 963.734166   5.76007   24.2708  103.0420   55.6960   146.5277   130.1417   0    0  0 
 963.834829   5.76217   24.2711  103.0138   55.6725   146.4492   130.0598   0    0  0 
 963.935492   5.76471   24.2705  102.9821   55.6437   146.4820   130.2025   0    0  0 
 964.036155   5.76685   24.2706  102.9536   55.6197   146.6521   130.2807   0    0  0 
 964.136818   5.76898   24.2708  102.9251   55.5957   146.5465   130.3041   0    0  0 
 964.237481   5.76860   24.2708  102.9302   55.6000   146.6173   130.1133   0    0  0 
 964.338145   5.77052   24.2709  102.9045   55.5784   146.6270   130.4662   0    0  0 
 964.438808   5.77128   24.2769  102.8872   55.5731   146.7081   130.4895   0    0  0 
 964.539471   5.77311   24.2776  102.8622   55.5529   146.8536   130.2740   0    0  0 
 964.640135   5.77493   24.2782  102.8372   55.5327   146.6951   130.2727   0    0  0 
 964.740797   5.77675   24.2788  102.8123   55.5124   146.6614   130.2350   0    0  0 
 964.841461   5.77858   24.2795  102.7873   55.4922   146.4933   130.4372   0    0  0 
 964.942124   5.78040   24.2801  102.7624   55.4720   146.7363   130.2740   0    0  0 
 965.042787   5.70310   24.3064  103.7577   56.3715   146.6101   130.3734   0    0  0 
 965.143451   5.69976   24.3087  103.7993   56.4113   146.6724   130.3187   0    0  0 
 965.244114   5.69642   24.3110  103.8409   56.4511   146.4930   130.3195   0    0  0 
 965.344776   5.69308   24.3133  103.8825   56.4909   146.7249   130.1468   0    0  0 
 965.445440   5.68975   24.3156  103.9241   56.5307   146.6090   130.0797   0    0  0 
 965.546103   5.68641   24.3180  103.9657   56.5705   146.5496   130.2408   0    0  0 
 965.646766   5.68307   24.3203  104.0073   56.6103   146.6209   130.3553   0    0  0 
 965.747430   5.67973   24.3226  104.0489   56.6501   146.5376   130.3141   0    0  0 
 965.848093   5.67639   24.3249  104.0905   56.6899   146.6814   130.1598   0    0  0 
 965.948756   5.74229   24.0223  103.6621   55.7699   146.5859   130.3121   0    0  0 
 966.049419   5.74219   24.0103  103.6817   55.7647   146.5855   130.4363   0    0  0 
 966.150082   5.74210   23.9983  103.7013   55.7595   146.3363   130.5795   0    0  0 
 966.250746   5.79287   24.2369  102.6606   55.3098   146.6001   130.4626   0    0  0 
 966.351409   5.79523   24.2371  102.6289   55.2831   146.5859   130.1583   0    0  0 
 966.452072   5.79760   24.2372  102.5971   55.2565   146.5948   130.3506   0    0  0 
 966.552735   5.79996   24.2374  102.5654   55.2298   146.6752   130.2180   0    0  0 
 966.653398   5.74606   24.2193  103.3188   55.8372   146.5496   130.2106   0    0  0 
 966.754061   5.74594   24.2187  103.3217   55.8385   146.5331   130.1679   0    0  0 
 966.854725   5.74738   24.2370  103.2753   55.8323   148.8252   132.3864   1    0  0 
 966.955388   5.74739   24.2379  103.2742   55.8330   156.7709   139.4407   1    0  0 
 967.056051   5.74977   24.1956  103.3058   55.7826   156.8236   139.3941   1    0  0 
 967.156714   5.75113   24.2138  103.2611   55.7780   157.0648   139.4093   1    0  0 
 967.257377   5.75143   24.2131  103.2586   55.7745   156.8678   139.3226   1    0  0 
 967.358041   5.75173   24.2123  103.2560   55.7710   156.7489   139.4032   1    0  0 
 967.458704   5.74615   24.2390  103.2915   55.8496   157.0606   139.4506   1    0  0 
 967.559367   5.74931   24.2170  103.2823   55.8017   156.9299   139.4135   1    0  0 
 967.660031   5.74946   24.2162  103.2818   55.7999   156.9857   139.4104   1    0  0 
 967.760693   5.74961   24.2154  103.2813   55.7981   156.7381   139.4283   1    0  0 
 967.861357   5.74990   24.2178  103.2732   55.7965   156.5956   139.5333   1    0  0 
 967.962020   5.74563   24.2533  103.2792   55.8648   156.8343   139.5398   1    0  0 
 968.062683   5.74541   24.2559  103.2787   55.8691   156.9034   139.6787   1    0  0 
 968.163346   5.74519   24.2585  103.2782   55.8733   156.9598   139.4356   1    0  0 
 968.264010   5.74976   24.2231  103.2691   55.8023   156.9956   139.4568   1    0  0 
 968.364672   5.74893   24.2128  103.2963   55.8057   156.9479   139.4504   1    0  0 
 968.465336   5.74900   24.2115  103.2975   55.8044   156.7120   139.4516   1    0  0 
 968.565999   5.74908   24.2103  103.2988   55.8031   156.7830   139.5591   1    0  0 
 968.666662   5.74690   24.2519  103.2663   55.8521   156.7377   139.3948   1    0  0 
 968.767326   5.74806   24.2232  103.2947   55.8233   156.7883   139.3705   1    0  0 
 968.867989   5.74807   24.2227  103.2959   55.8233   156.7563   139.3607   1    0  0 
 968.968652   5.74807   24.2222  103.2970   55.8233   156.8237   139.2952   1    0  0 
 969.069315   5.74991   24.2261  103.2650   55.8043   156.7688   139.2261   1    0  0 
 969.169978   5.75006   24.2259  103.2635   55.8028   156.6850   139.2744   1    0  0 
 969.270642   5.74816   24.2172  103.3034   55.8203   156.8316   139.2141   1    0  0 
 969.371305   5.74815   24.2164  103.3052   55.8203   156.7017   139.3373   1    0  0 
 969.471968   5.74881   24.2284  103.2788   55.8198   156.9334   139.2881   1    0  0 
 969.572631   5.74885   24.2285  103.2784   55.8197   156.9499   139.3262   1    0  0 
 969.673294   5.74908   24.2323  103.2705   55.8189   156.8255   139.4245   1    0  0 
 969.773957   5.74913   24.2328  103.2695   55.8188   156.8833   139.1258   1    0  0 
