#     FILENAME=Skynet_59735_AP_-_ST3_81159_29887.A.raw.txt
#     BASENAME=Skynet_59735_AP_-_ST3_81159_29887
#      CONTROL=SKYNET
#     PROJCODE=Skynet_59735_AP_-_ST3_81159
#     DATAROOT=/raid/scratch/cyborg/SkynetData
#      DATADIR=/raid/scratch/cyborg
#     DATADIR2=/raid/scratch/cyborg/SkynetData/Skynet_59735_AP_-_ST3_81159/Cyb
#     SCANNAME=2022_05_26_22
#     SRC_NAME=AP_-_ST3
#     OBSERVER=socamrad_21318
#     DATE_OBS=2022-06-05T19:37:56.450
#        OBSID=81159
#      SCANNUM=29887
#          MJD=59735.8180145
#          UTC=70676
#     SCANTYPE=ralongmap
#     DATAMODE=HIRES
#     RECEIVER=Rx1_2
#      OBSFREQ=1421.8800
# Actual_FREQ1=1550.0000,
# Actual_FREQ2=1425.0000
#    LO1Tuning=6937.5000
#     RFFILTER=1300_1800
#        OBSBW=-15.6250
#     EFFBANDW=15.6250
#        NCHAN=1024
#    STARTCHAN=51
#     STOPCHAN=972
#         TINT=0.3000
#         TBIN=0.00419430
#       ACCLEN=2048 
#     DURATION=147.00
#     EXPOSURE=98.39
#        FOCUS=37.071
#       RA,DEC=05:30:44.34, 17:17:45.36
#      RA(deg)=85.44407
#     DEC(deg)=19.98307
#   WIDTH(deg)=5.6474x5.8823
#    AZIM(deg)=233.7448
#    ELEV(deg)=62.4715
#     COORDREF=RA_DEC_
#         HREF=85.5000
#         VREF=20.0000
#      RADESYS=FK5
#       OFFSYS=RADEC
#      EQUINOX=2000.00
#     IFATTENS=16.00, 19.00
#   BALANCELEV=1.200 
#   POWER_XLYR=[1.07, 1.38] 
#       VELDEF=RADI-OBS 
#     VELOCITY=0.000 
#         NPOL=2 
#      POLMODE=Linear 
#      POLTYPE=XXYY 
#      WARNING=None 
#     NOISECAL=HI 
#       PRECAL=2 
#      POSTCAL=2 
#     CRYOTEMP=15 
#      BOXTEMP=23 
#         TSYS=XX1:76.12, YY1:111.95
#         TSYS=XX2:36.62, YY2:49.27
#         TCAL=XX1:9.31, YY1:11.00
#         TCAL=XX2:9.18, YY2:10.14
# Raw Continuum 
#                
#UTC_Time(s)   Ra(deg)  Dec(deg)   Az(deg)   El(deg)        XX1        YY1        XX2        YY2  Cal   Sweeps 
70676.450000  82.68480   17.2959  233.5970   58.9722   883.6612   243.2918    90.0583   141.8777  -1    0  0 
70676.750000  82.68585   17.2959  233.5970   58.9722   902.5666   246.6629    89.5442   142.1576  -1    0  0 
70677.050000  82.68750   17.2961  233.5970   58.9724   898.3284   245.7510    89.5483   142.1339  -1    0  0 
70677.350000  82.68915   17.2960  233.5960   58.9727   892.8353   243.2245    89.5987   142.1437  -1    0  0 
70677.650000  82.69080   17.2960  233.5960   58.9727   893.4873   241.6678    89.7051   142.0563  -1    0  0 
70677.950000  82.69095   17.2961  233.5970   58.9724   902.8966   239.6676    89.6397   142.1540  -1    0  0 
70678.250000  82.69275   17.2961  233.5970   58.9724   906.8952   238.7782    89.5903   142.2428  -1    0  0 
70678.550000  82.69425   17.2960  233.5960   58.9727   918.7969   238.0558    89.5638   142.1762  -1    0  0 
70678.850000  82.69545   17.2963  233.5970   58.9726   938.9002   238.4108    89.5961   142.2902  -1    0  0 
70679.150000  82.69650   17.2963  233.5970   58.9726   938.7043   239.1312    89.5897   141.9442  -1    0  0 
70679.450000  82.69860   17.2960  233.5960   58.9727   921.2417   238.7553    89.4621   142.0660  -1    0  0 
70679.750000  82.69860   17.2963  233.5970   58.9726   915.6845   239.6758    89.5563   141.9710  -1    0  0 
70680.050000  82.70070   17.2963  233.5970   58.9726   907.9802   239.5021    89.6223   142.1793   0    0  0 
70680.350000  82.70160   17.2963  233.5970   58.9727   899.3868   240.7792    89.5176   142.2882   0    0  0 
70680.650000  82.70325   17.2963  233.5970   58.9726   895.1965   240.7367    89.5384   142.2754   0    0  0 
70680.950000  82.70400   17.2963  233.5970   58.9726   907.0926   240.3102    89.5269   142.2624   0    0  0 
70681.250000  82.70595   17.2964  233.5970   58.9727   915.2764   240.9088    89.5145   142.0574   0    0  0 
70681.550000  82.70640   17.2963  233.5970   58.9726   913.7776   244.1569    89.5802   142.0711   0    0  0 
70681.850000  82.70820   17.2964  233.5970   58.9727   909.5404   243.6435    89.6853   142.2411   0    0  0 
70682.150000  82.70895   17.2963  233.5970   58.9726   908.2573   241.3070    89.6613   142.3636   0    0  0 
70682.450000  82.71135   17.2960  233.5960   58.9727   908.9366   239.9172    89.6692   142.3256   0    0  0 
70682.750000  82.71195   17.2963  233.5970   58.9726   905.4110   237.4227    89.6417   142.2098   0    0  0 
70683.050000  82.71315   17.2963  233.5970   58.9726   895.7501   236.8908    89.5952   142.1640   0    0  0 
70683.350000  82.71435   17.2963  233.5970   58.9726   892.7040   236.1388    89.5526   142.3464   0    0  0 
70683.650000  82.71615   17.2963  233.5970   58.9726   892.0931   234.8201    89.5046   142.2980   0    0  0 
70683.950000  82.71690   17.2963  233.5970   58.9726   894.2435   234.3691    89.4965   142.0959   0    0  0 
70684.250000  82.71855   17.2964  233.5970   58.9727   897.2972   235.3962    89.3857   142.1794   0    0  1 
70684.550000  82.71960   17.2963  233.5970   58.9726   895.7536   237.3255    89.5292   142.1962   0    0  1 
70684.850000  82.72110   17.2963  233.5970   58.9726   891.5187   235.9954    89.3743   142.3071   0    0  1 
70685.150000  82.72155   17.2963  233.5970   58.9726   890.9347   236.1847    89.5574   141.9569   0    0  1 
70685.450000  82.72335   17.2963  233.5970   58.9726   880.1335   233.5657    89.5446   141.8080   0    0  1 
70685.750000  82.72470   17.2963  233.5970   58.9726   902.7486   233.8423    89.3532   141.7264   0    0  1 
70686.050000  82.86435   17.3360  233.4560   59.0898   942.8018   221.4076    88.3369   139.3893   0    0  1 
70686.350000  83.03355   17.3993  233.3020   59.2438   673.7782   215.4041    87.8004   135.0432   0    0  1 
70686.650000  83.17980   17.4580  233.1730   59.3799   446.4484   309.2369    89.1337   136.5088   0    0  1 
70686.950000  83.94180   17.6730  232.3680   60.0190   399.1071   272.6057    89.7868   141.1762   0    0  1 
70687.250000  84.30690   17.7057  231.8810   60.2703   365.2121   204.4862    87.9713   142.8038   0    0  1 
70687.550000  84.86355   17.7104  231.0670   60.6159   286.0940   235.6793    85.7465   139.2643   0    0  1 
70687.850000  85.08270   17.7058  230.7340   60.7458   225.2055   202.2343    84.8035   135.3334   0    0  1 
70688.150000  85.53420   17.6933  230.0360   61.0093   173.0885   138.1443    85.0015   133.5408   0    0  1 
70688.450000  85.81890   17.6840  229.5890   61.1729   142.5456   157.7988    84.9575   132.9285   0    0  1 
70688.750000  86.33400   17.6745  228.7790   61.4716   612.2091   499.9747    84.6181   133.9393   0    0  1 
70689.050000  86.85105   17.6737  227.9630   61.7746  1208.4244   774.8063    84.7103   135.2342   0    0  1 
70689.350000  86.99055   17.6755  227.7430   61.8573  1097.9265   566.1507    84.8683   135.5388   0    0  1 
70689.650000  87.29205   17.6807  227.2660   62.0359   687.8723   232.3525    85.6613   135.6368   0    0  1 
70689.950000  87.79860   17.6884  226.4510   62.3327   319.6250   218.0297    87.3182   136.5539   0    0  0 
70690.250000  88.00095   17.6902  226.1200   62.4490   294.9410   210.0344    87.5119   137.7552   0    0  0 
70690.550000  88.39605   17.6824  225.4530   62.6650   247.6711   205.8917    87.0130   137.7340   0    0  0 
70690.850000  88.48755   17.5526  225.1350   62.6102   243.1127   195.4396    86.7796   137.8014   0    0  0 
70691.150000  88.48335   17.5521  225.1430   62.6070   248.4686   191.0310    86.8094   137.7350   0    0  0 
70691.450000  88.37625   17.6066  225.3960   62.5901   277.1106   188.5206    87.2821   137.6299   0    0  0 
70691.750000  88.32975   17.6319  225.5080   62.5840   284.2250   190.2293    87.3860   137.9195   0    0  0 
70692.050000  88.32570   17.6324  225.5180   62.5812   288.5906   188.9945    87.4160   137.5456   0    1  1 
70692.350000  88.32480   17.6328  225.5220   62.5804   295.0698   188.6056    87.3405   137.0929   0    1  1 
70692.650000  88.32315   17.6327  225.5270   62.5785   303.1542   188.2914    87.2981   137.2059   0    1  1 
70692.950000  88.32345   17.6332  225.5290   62.5785   306.6021   187.1220    87.3309   137.4415   0    1  1 
70693.250000  88.32390   17.6330  225.5290   62.5783   304.2521   187.8565    87.2827   137.7727   0    1  1 
70693.550000  88.31865   17.6322  225.5400   62.5735   298.1255   186.9763    87.3437   137.4936   0    1  1 
70693.850000  88.18500   17.5816  225.7000   62.4568   250.8399   183.6726    87.0903   136.5004   0    1  1 
70694.150000  87.80925   17.4154  226.1120   62.1090   655.2570   174.7979    85.7064   135.7725   0    1  1 
70694.450000  87.09255   17.2128  227.0210   61.5349  1306.8209   446.3336    84.3661   134.6512   0    1  1 
70694.750000  87.09240   17.2128  227.0210   61.5349  1355.4093   627.0005    84.5228   134.4045   0    1  1 
70695.050000  86.46255   17.1605  227.9570   61.1260   750.2657   362.1038    84.4428   133.7438   0    1  1 
70695.350000  85.99680   17.1527  228.6750   60.8447   365.0061   137.4241    84.1279   134.0232   0    1  1 
70695.650000  85.85625   17.1570  228.8980   60.7645   292.1906   144.6770    84.4926   135.7838   0    1  1 
70695.950000  85.24800   17.1613  229.8330   60.4027   259.0610   201.4094    85.6436   136.2105   0    1  1 
70696.250000  84.93075   17.1727  230.3250   60.2192   397.4055   248.5896    87.1392   135.9242   0    1  1 
70696.550000  84.63630   17.1807  230.7740   60.0456   448.1066   280.7234    91.0382   135.3536   0    1  1 
70696.850000  84.24405   17.1979  231.3740   59.8175   390.0957   315.5924    92.3181   134.3608   0    1  1 
70697.150000  84.02190   17.2108  231.7150   59.6896   438.9796   185.8440    89.6537   133.9137   0    1  1 
70697.450000  83.39595   17.2388  232.6510   59.3202   658.6583   188.3869    88.3839   136.4020   0    1  1 
70697.750000  83.13990   17.2504  233.0290   59.1677   814.2050   241.9957    89.4297   140.9706   0    1  0 
70698.050000  82.57845   17.2778  233.8500   58.8318   603.6558   205.2686    89.7108   139.9955   0    1  0 
70698.350000  82.46025   17.3026  234.0460   58.7746   565.3827   166.9860    87.5949   136.2111   0    1  0 
70698.650000  82.35975   17.5697  234.5330   58.9080   613.2490   173.6253    85.5409   133.2823   0    1  0 
70698.950000  82.42485   17.7019  234.6180   59.0472   635.9966   180.2624    84.7068   132.7401   0    1  0 
70699.250000  82.54455   17.8426  234.6410   59.2271   628.4775   169.6458    84.7007   132.8491   0    1  0 
70699.550000  82.59885   17.9075  234.6530   59.3095   610.9532   162.9459    84.9618   133.0231   0    1  0 
70699.850000  82.63260   17.9484  234.6630   59.3603   588.4177   158.9243    85.0416   132.8964   0    1  0 
70700.150000  82.64745   17.9649  234.6670   59.3809   578.8383   156.9730    85.0986   133.2455   0    1  0 
70700.450000  82.65585   17.9721  234.6660   59.3911   571.5310   159.4568    85.2111   133.4816   0    2  1 
70700.750000  82.66305   17.9786  234.6670   59.3995   570.9632   157.6799    85.2889   133.3520   0    2  1 
70701.050000  82.66620   17.9808  234.6670   59.4024   567.2720   157.8247    85.2895   133.2675   0    2  1 
70701.350000  82.66710   17.9815  234.6680   59.4029   564.8925   156.9521    85.2984   133.2732   0    2  1 
70701.650000  82.66995   17.9813  234.6660   59.4036   561.9122   158.9002    85.3680   133.5228   0    2  1 
70701.950000  82.77660   18.0147  234.5650   59.4956   497.8771   170.6490    86.4670   132.7753   0    2  1 
70702.250000  82.82085   18.0295  234.5240   59.5346   442.0347   235.5316    89.3202   133.5933   0    2  1 
70702.550000  83.47185   18.2827  233.9510   60.1376   369.0819   198.6096    88.8417   136.9830   0    2  1 
70702.850000  83.65215   18.3241  233.7510   60.2827   256.8443   130.7925    86.3003   137.9284   0    2  1 
70703.150000  84.35745   18.3840  232.8150   60.7716   265.0940   121.5759    85.5270   140.2532   0    2  1 
70703.450000  84.68550   18.3814  232.3300   60.9743   347.4943   119.5023    85.7841   139.4189   0    2  1 
70703.750000  85.12545   18.3748  231.6670   61.2414   346.5621   124.9757    85.1936   135.1529   0    2  1 
70704.050000  85.43730   18.3672  231.1870   61.4271   242.0114   118.4802    85.4925   134.0476   0    2  1 
70704.350000  85.72170   18.3580  230.7420   61.5935   129.7966   156.6498    86.1265   134.5900   0    2  1 
70704.650000  86.16645   18.3479  230.0430   61.8548   142.7412   233.8749    85.8755   135.4755   0    2  1 
70704.950000  86.46990   18.3411  229.5600   62.0316   532.2390   529.1560    85.7095   136.3897   0    2  1 
70705.250000  86.88615   18.3387  228.8990   62.2772  1140.2507   763.9532    86.2737   136.1219   0    2  1 
70705.550000  87.18660   18.3380  228.4170   62.4539  1222.6757   557.6283    86.5387   135.7094   0    2  1 
70705.850000  87.61905   18.3363  227.7140   62.7052   749.7100   237.2253    87.1166   136.3213   0    2  1 
70706.150000  87.88905   18.3386  227.2740   62.8634   327.9925   356.3122    88.1704   138.6538   0    2  0 
70706.450000  88.02525   18.3402  227.0510   62.9431   369.0406   458.5913    88.0881   140.9207   0    2  0 
70706.750000  88.50630   18.2521  226.1310   63.1468   352.2493   402.3776    87.6080   140.0920   0    2  0 
70707.050000  88.51035   18.2129  226.0730   63.1173   327.3767   397.9163    87.6182   140.6351   0    2  0 
70707.350000  88.45170   18.2357  226.2060   63.1010   328.3001   429.5563    88.0595   140.1763   0    2  0 
70707.650000  88.40535   18.2612  226.3190   63.0947   313.8094   432.3692    88.2113   139.6977   0    2  0 
70707.950000  88.32885   18.3064  226.5110   63.0861   308.7984   421.6023    88.2598   139.8100   0    3  1 
70708.250000  88.32930   18.3066  226.5120   63.0861   302.0731   422.4290    88.2537   140.2318   0    3  1 
70708.550000  88.32405   18.3077  226.5250   63.0830   292.2115   418.7023    88.3231   140.1770   0    3  1 
70708.850000  88.32255   18.3083  226.5300   63.0821   285.7034   411.9926    88.2560   140.1890   0    3  1 
70709.150000  88.32330   18.3091  226.5330   63.0821   288.1389   410.2820    88.1528   139.8533   0    3  1 
70709.450000  88.32450   18.3091  226.5330   63.0821   280.4415   398.7478    88.2308   139.7090   0    3  1 
70709.750000  88.31850   18.3092  226.5440   63.0784   315.8556   334.4148    87.8054   138.4499   0    3  1 
70710.050000  87.95835   18.1657  226.9570   62.7558   701.6730   210.0227    86.5149   136.5704   0    3  1 
70710.350000  87.59115   18.0081  227.3540   62.4175  1192.5277   653.2552    85.2555   136.4624   0    3  1 
70710.650000  87.41190   17.9575  227.5800   62.2729  1013.8700   759.4014    85.0613   136.7951   0    3  1 
70710.950000  86.57265   17.8339  228.7640   61.6809   274.1451   334.1009    84.9643   135.1074   0    3  1 
70711.250000  86.33325   17.8294  229.1350   61.5346   139.4983   147.5925    85.4403   133.5250   0    3  1 
70711.550000  85.96740   17.8232  229.6970   61.3101   212.6766   145.6643    85.2090   133.5824   0    3  1 
70711.850000  85.65030   17.8255  230.1890   61.1197   267.5488   206.0500    84.9263   135.3471   0    3  1 
70712.150000  85.36200   17.8313  230.6360   60.9487   350.7724   174.9010    85.5811   140.6844   0    3  1 
70712.450000  84.90270   17.8475  231.3490   60.6789   326.0999   165.2644    87.0933   143.9511   0    3  1 
70712.750000  84.75525   17.8537  231.5770   60.5924   308.9513   224.7540    87.9077   141.7090   0    3  1 
70713.050000  83.96430   17.8846  232.7780   60.1220   373.2719   239.6588    87.8300   136.5608   0    3  1 
70713.350000  83.73915   17.8945  233.1160   59.9874   444.9781   293.5466    87.9274   133.4023   0    3  1 
70713.650000  83.25990   17.9157  233.8270   59.6989   566.8230   210.6130    86.9771   132.9947   0    3  1 
70713.950000  82.95135   17.9316  234.2820   59.5133   613.2042   156.0410    85.3241   133.3803   0    3  0 
70714.250000  82.39590   17.9656  235.0970   59.1804   577.0561   111.7439    85.7778   135.1871   0    3  0 
70714.550000  82.30440   18.0003  235.2690   59.1463   555.9937   107.8114    87.2879   138.0392   0    3  0 
70714.850000  82.29945   18.2571  235.6220   59.3300   504.5589    90.1701    88.8034   138.3959   0    3  0 
70715.150000  82.43190   18.4081  235.6460   59.5258   475.8306    81.9639    88.8645   136.6945   0    3  0 
70715.450000  82.52340   18.5099  235.6610   59.6585   457.5812   103.5793    88.0272   135.2226   0    3  0 
70715.750000  82.61880   18.6129  235.6730   59.7945   457.1259   121.3933    87.5593   134.7599   0    3  0 
70716.050000  82.63590   18.6278  235.6710   59.8159   459.5411   134.4911    87.3371   134.5891   0    3  0 
70716.350000  82.64145   18.6349  235.6740   59.8243   461.2945   141.5557    87.0636   134.1983   0    3  0 
70716.650000  82.65540   18.6481  235.6750   59.8419   461.8244   144.9799    86.9329   134.0060   0    4  1 
70716.950000  82.66305   18.6542  235.6750   59.8503   465.1579   147.4948    86.9422   133.9617   0    4  1 
70717.250000  82.66635   18.6557  235.6740   59.8528   462.9332   148.3164    86.8422   134.1523   0    4  1 
70717.550000  82.66860   18.6568  235.6740   59.8544   459.6599   147.3751    86.8130   133.6517   0    4  1 
70717.850000  82.67100   18.6570  235.6730   59.8551   459.7578   150.0339    86.7790   133.6005   0    4  1 
70718.150000  82.76940   18.6847  235.5780   59.9380   510.9233   244.9000    86.1094   132.8984   0    4  1 
70718.450000  82.76940   18.6847  235.5780   59.9380   516.7178   351.9582    85.5281   133.2330   0    4  1 
70718.750000  83.17530   18.8312  235.2170   60.3071   237.7399   180.8643    85.5831   134.1419   0    4  1 
70719.050000  83.97750   19.0400  234.3710   60.9755   162.0051   133.8640    85.3397   133.6879   0    4  1 
70719.350000  84.15315   19.0611  234.1480   61.1029   179.0195   117.6778    85.2552   133.5950   0    4  1 
70719.650000  84.51765   19.0942  233.6640   61.3590   219.6524   123.9892    86.7674   134.7144   0    4  1 
70719.950000  85.14000   19.0935  232.7430   61.7497   150.4310   119.3154    88.0088   138.5254   0    4  1 
70720.250000  85.43175   19.0897  232.2990   61.9287   103.7785    86.5619    87.0116   142.8348   0    4  1 
70720.550000  85.74030   19.0824  231.8200   62.1143   157.4184    99.4540    85.9034   143.3360   0    4  1 
70720.850000  86.25570   19.0678  231.0050   62.4195   229.3385   138.4032    85.9880   140.6983   0    4  1 
70721.150000  86.46420   19.0631  230.6730   62.5428   322.2902   200.5103    86.5158   138.4240   0    4  1 
70721.450000  86.60115   19.0589  230.4520   62.6226   712.8558   338.4601    88.0089   136.4751   0    4  1 
70721.750000  87.32625   19.0413  229.2700   63.0444   870.9711   379.6322    88.7672   136.7954   0    4  1 
70722.050000  87.46140   19.0398  229.0490   63.1235   950.0191   215.1570    88.4390   138.6543   0    4  1 
70722.350000  87.73245   19.0394  228.6060   63.2833   712.4003   228.5333    88.5074   141.6620   0    4  0 
70722.650000  88.29510   19.0465  227.6830   63.6181   453.8443   446.0704    89.1966   144.9289   0    4  0 
70722.950000  88.46850   19.0017  227.3300   63.6829   441.8691   507.6938    89.4852   145.4272   0    4  0 
70723.250000  88.48305   18.8848  227.1470   63.5975   421.5287   496.7055    89.6176   145.4509   0    4  0 
70723.550000  88.46175   18.9026  227.2090   63.5988   386.5996   443.2425    89.4428   144.7517   0    4  0 
70723.850000  88.33995   18.9734  227.5150   63.5834   385.2358   387.2041    89.2155   144.1427   0    4  0 
70724.150000  88.32825   18.9859  227.5540   63.5858   395.4521   371.0340    89.2292   144.1543   0    5  1 
70724.450000  88.32450   18.9851  227.5620   63.5820   411.2108   378.0094    89.0834   143.8860   0    5  1 
70724.750000  88.32390   18.9861  227.5660   63.5818   421.6452   374.4111    89.1133   144.1107   0    5  1 
70725.050000  88.32405   18.9865  227.5690   63.5813   427.4817   377.5305    89.1109   144.1419   0    5  1 
70725.350000  88.32420   18.9868  227.5710   63.5810   432.2260   377.3228    89.1579   144.2260   0    5  1 
70725.650000  88.31535   18.9844  227.5850   63.5731   494.7335   321.7219    88.9687   143.2304   0    5  1 
70725.950000  88.14420   18.9225  227.7880   63.4237   799.4477   229.6523    88.5336   139.7121   0    5  1 
70726.250000  87.59685   18.6912  228.3770   62.9196  1059.2510   484.8404    88.3243   136.7244   0    5  1 
70726.550000  87.41385   18.6387  228.6040   62.7702   864.1922   614.4974    87.8655   136.1001   0    5  1 
70726.850000  86.88705   18.5514  229.3350   62.3879   327.4467   334.9435    86.9300   136.6753   0    5  1 
70727.150000  86.55645   18.5260  229.8260   62.1691   140.4191   169.1989    86.6472   136.9526   0    5  1 
70727.450000  86.11995   18.5211  230.5040   61.9002   156.3582   136.4510    86.7346   136.7056   0    5  1 
70727.750000  85.80885   18.5208  230.9850   61.7095   229.3784   114.5410    86.1273   135.8583   0    5  1 
70728.050000  85.26480   18.5219  231.8160   61.3741   312.3599   124.7224    86.3130   136.4454   0    5  1 
70728.350000  85.18950   18.5220  231.9300   61.3272   306.0696   126.6342    86.3655   138.5315   0    5  1 
70728.650000  84.56760   18.5308  232.8680   60.9446   207.0707   133.4771    85.6396   137.7507   0    5  1 
70728.950000  84.09000   18.5419  233.5810   60.6505   243.9767   123.1817    86.6814   137.8468   0    5  1 
70729.250000  83.94000   18.5470  233.8050   60.5587   408.5772   192.1668    89.4538   138.7952   0    5  1 
70729.550000  83.30970   18.5785  234.7470   60.1778   537.8845   290.3435    89.1791   136.3799   0    5  1 
70729.850000  83.23530   18.5837  234.8590   60.1335   502.7154   208.3505    87.4463   134.0750   0    5  1 
70730.150000  82.67730   18.6190  235.6850   59.7970   393.2839   122.5774    88.3690   136.4502   0    5  0 
70730.450000  82.32840   18.7042  236.2810   59.6302   318.1794   135.2548    88.1597   138.1331   0    5  0 
70730.750000  82.29720   18.7718  236.4170   59.6583   304.9145   140.2879    86.8507   138.2862   0    5  0 
70731.050000  82.44525   19.1029  236.6770   59.9931   314.2706   123.3960    87.1592   140.6432   0    5  0 
70731.350000  82.48920   19.1473  236.6800   60.0535   351.2947   112.8474    87.6764   143.5829   0    5  0 
70731.650000  82.58835   19.2545  236.6970   60.1948   376.2288   108.1298    88.1504   145.3768   0    5  0 
70731.950000  82.61895   19.2872  236.7030   60.2375   393.0872   105.8000    88.1355   145.9556   0    5  0 
70732.250000  82.64010   19.3101  236.7080   60.2671   396.5486   105.2544    88.2671   145.9379   0    5  0 
70732.550000  82.65270   19.3225  236.7100   60.2834   402.7656   106.0375    88.3270   146.5566   0    6  1 
70732.850000  82.65900   19.3280  236.7110   60.2906   408.1680   107.2995    88.3589   146.7767   0    6  1 
70733.150000  82.66560   19.3324  236.7110   60.2968   407.7457   106.4612    88.3540   146.7879   0    6  1 
70733.450000  82.66680   19.3329  236.7110   60.2974   401.2863   106.3444    88.2259   146.7811   0    6  1 
70733.750000  82.66875   19.3327  236.7090   60.2981   405.4747   106.6801    88.2031   146.7714   0    6  1 
70734.050000  82.68000   19.3343  236.6980   60.3057   448.3111   107.2803    88.0343   146.5307   0    6  1 
70734.350000  82.81365   19.3749  236.5730   60.4221   345.3803   170.2781    88.1651   144.0572   0    6  1 
70734.650000  83.27400   19.5436  236.1760   60.8445   221.9070   255.4824    88.6933   139.2151   0    6  1 
70734.950000  84.06600   19.7096  235.2940   61.4790   165.6726   152.7833    87.8397   136.1040   0    6  1 
70735.250000  84.24000   19.7306  235.0740   61.6065   171.5816    88.3976    86.9322   135.6008   0    6  1 
70735.550000  84.59745   19.7561  234.5920   61.8546   227.6064    99.3239    86.1186   135.7358   0    6  1 
70735.850000  85.04670   19.7387  233.9050   62.1280   173.3321   184.3914    85.1887   137.0711   0    6  1 
70736.150000  85.46295   19.7114  233.2430   62.3706   127.7004   147.4083    85.5798   138.1989   0    6  1 
70736.450000  85.76790   19.6965  232.7590   62.5507   161.2560    83.0995    86.2432   138.2395   0    6  1 
70736.750000  86.04540   19.6841  232.3160   62.7143   192.3845    83.6926    86.5092   137.7376   0    6  1 
70737.050000  86.48385   19.6707  231.6160   62.9752   144.8747   129.1362    87.0349   136.8757   0    6  1 
70737.350000  86.92275   19.6623  230.9110   63.2377   299.0377   141.8639    87.5917   136.9449   0    6  1 
70737.650000  87.06075   19.6615  230.6900   63.3209   577.6594   172.3598    87.8628   139.5315   0    6  1 
70737.950000  87.56865   19.6678  229.8790   63.6326   556.2717   216.0399    87.6307   140.8777   0    6  1 
70738.250000  87.93750   19.6772  229.2870   63.8604   589.5461   136.8957    86.9599   141.2121   0    6  0 
70738.550000  88.21050   19.6866  228.8470   64.0297   425.4387   178.5414    86.8002   141.6573   0    6  0 
70738.850000  88.54020   19.6843  228.2900   64.2220   425.4815   301.6075    87.1549   142.2089   0    6  0 
70739.150000  88.59600   19.5225  227.9670   64.1265   439.9503   345.0436    87.3436   142.7924   0    6  0 
70739.450000  88.57515   19.5219  228.0030   64.1133   420.3510   267.4292    87.2757   142.8543   0    6  0 
70739.750000  88.44885   19.5926  228.3210   64.0936   458.1603   137.8303    87.0018   142.4819   0    6  0 
70740.050000  88.35930   19.6462  228.5510   64.0820   496.4417   101.4835    86.9317   142.2398   0    6  0 
70740.350000  88.33365   19.6596  228.6160   64.0764   537.4772    98.7883    86.8813   142.0499   0    6  0 
70740.650000  88.32885   19.6597  228.6260   64.0730   554.2800    95.3172    86.8207   141.9456   0    7  1 
70740.950000  88.32435   19.6589  228.6350   64.0688   549.9778    95.9825    86.9294   142.1937   0    7  1 
70741.250000  88.32375   19.6597  228.6390   64.0685   539.6223    95.0171    86.9701   142.1547   0    7  1 
70741.550000  88.32375   19.6598  228.6400   64.0682   538.4820    94.0737    86.8228   142.0027   0    7  1 
70741.850000  88.32555   19.6603  228.6420   64.0682   554.0981    93.9404    86.8901   142.0940   0    7  1 
70742.150000  88.31685   19.6594  228.6560   64.0621   638.2852   103.1705    86.8546   142.1034   0    7  1 
70742.450000  87.93750   19.5197  229.0920   63.7269   647.0276   188.2833    87.3161   140.9731   0    7  1 
70742.750000  87.77610   19.4516  229.2620   63.5774   694.0177   254.4305    88.0257   138.5511   0    7  1 
70743.050000  87.18780   19.2755  229.9720   63.0871   379.7591   185.3295    87.1733   136.8959   0    7  1 
70743.350000  86.69490   19.1930  230.6440   62.7239   230.1014   149.1462    86.0707   138.4691   0    7  1 
70743.650000  86.44350   19.1784  231.0200   62.5587   170.7477    99.5516    85.5523   141.7746   0    7  1 
70743.950000  85.90710   19.1734  231.8480   62.2233   111.2419    89.1795    86.1171   143.5056   0    7  1 
70744.250000  85.75950   19.1713  232.0720   62.1298   151.1613   123.0307    87.2715   140.9171   0    7  1 
70744.550000  85.15095   19.1842  233.0130   61.7576   218.0025   124.6312    86.9553   136.9855   0    7  1 
70744.850000  85.00560   19.1901  233.2390   61.6700   197.7650   105.9759    85.3898   134.5174   0    7  1 
70745.150000  84.68625   19.1981  233.7240   61.4731   185.3535   122.9471    84.9096   134.4093   0    7  1 
70745.450000  84.05970   19.2202  234.6690   61.0879   189.1969   167.9172    85.4506   135.0746   0    7  1 
70745.750000  83.75790   19.2296  235.1150   60.8998   271.3949   229.7524    85.8663   138.1582   0    7  1 
70746.050000  83.42955   19.2474  235.6060   60.6993   415.2776   192.3396    86.2999   141.5444   0    7  1 
70746.350000  83.19825   19.2568  235.9440   60.5551   372.6240   118.0393    87.8415   145.3739   0    7  0 
70746.650000  82.49340   19.3052  236.9860   60.1258   272.7473   168.6455    90.7362   146.3946   0    7  0 
70746.950000  82.40580   19.3438  237.1600   60.0952   262.5645   172.8690    93.3522   148.0038   0    7  0 
70747.250000  82.39290   19.6838  237.6630   60.3275   333.0229   154.9041    92.4980   147.8271   0    7  0 
70747.550000  82.45965   19.7982  237.7380   60.4525   401.2777   165.8876    90.7165   147.2294   0    7  0 
70747.850000  82.58265   19.9247  237.7560   60.6227   414.2948   178.6114    89.9167   146.9175   0    7  0 
70748.150000  82.60785   19.9498  237.7590   60.6569   415.3435   179.5300    89.4920   146.1285   0    7  0 
70748.450000  82.63650   19.9831  237.7710   60.6981   413.2323   179.5969    89.4167   146.1743   0    7  0 
70748.750000  82.64415   19.9902  237.7720   60.7077   406.7562   178.4367    89.3484   146.5404   0    8  1 
70749.050000  82.65900   20.0036  237.7740   60.7257   408.5060   174.7652    89.2922   146.4803   0    8  1 
70749.350000  82.66050   20.0052  237.7750   60.7276   413.6984   177.0731    89.2381   146.3460   0    8  1 
70749.650000  82.66560   20.0086  237.7750   60.7323   423.0304   183.9793    89.1482   146.2520   0    8  1 
70749.950000  82.66815   20.0093  237.7740   60.7338   420.6983   190.6357    89.2015   146.0782   0    8  1 
70750.250000  82.72815   20.0248  237.7170   60.7836   341.9989   192.1230    88.9749   143.5644   0    8  1 
70750.550000  83.01150   20.1158  237.4630   61.0356   287.3358   198.4591    90.3937   140.4738   0    8  1 
70750.850000  83.50440   20.2872  237.0320   61.4829   293.1738   131.8239    91.7010   138.6727   0    8  1 
70751.150000  83.97930   20.3618  236.4730   61.8481   220.3904   113.7208    90.6448   138.1639   0    8  1 
70751.450000  84.34635   20.3941  235.9960   62.1109   220.4696   129.4964    91.8743   140.7993   0    8  1 
70751.750000  84.66240   20.4013  235.5490   62.3212   233.1762   115.8543    93.4909   143.7702   0    8  1 
70752.050000  85.13100   20.3917  234.8460   62.6162   160.4214   144.9782    94.7711   147.0626   0    8  1 
70752.350000  85.73325   20.3776  233.9220   62.9901   113.0124   173.9817    94.0810   149.4181   0    8  1 
70752.650000  85.87995   20.3776  233.6990   63.0830   100.8820   160.5409    91.6605   148.8117   0    8  1 
70752.950000  86.32890   20.3727  233.0010   63.3621   122.2382   191.5630    90.2149   144.9582   0    8  1 
70753.250000  86.63760   20.3720  232.5180   63.5545   151.2293   157.1082    89.5530   143.1297   0    8  1 
70753.550000  87.05895   20.3732  231.8530   63.8167   214.6732   121.4542    88.6332   144.7063   0    8  1 
70753.850000  87.36210   20.3783  231.3740   64.0072   204.1951   149.5837    88.1579   147.6649   0    8  1 
70754.150000  87.79905   20.3823  230.6690   64.2769   253.1021   143.4532    88.7531   149.7008   0    8  1 
70754.450000  88.00170   20.3850  230.3390   64.4017   347.8604   143.8097    88.9182   148.2145   0    8  0 
70754.750000  88.48575   20.3901  229.5380   64.6965   361.5401   154.3482    88.6306   144.6822   0    8  0 
70755.050000  88.59795   20.3296  229.2590   64.7163   365.9040   150.1338    88.3203   143.1135   0    8  0 
70755.350000  88.57230   20.2074  229.1230   64.6055   382.0008   141.6862    88.0546   143.1542   0    8  0 
70755.650000  88.55550   20.2098  229.1560   64.5970   415.4193   138.1751    88.2478   144.5142   0    8  0 
70755.950000  88.40700   20.2941  229.5360   64.5722   425.6452   138.5314    88.5960   146.4762   0    8  0 
70756.250000  88.34310   20.3324  229.7030   64.5626   405.0323   134.8953    88.6873   147.0097   0    8  0 
70756.550000  88.32795   20.3341  229.7340   64.5537   392.8758   133.7476    88.6740   146.9715   0    9  1 
70756.850000  88.32585   20.3360  229.7430   64.5530   381.8126   135.3051    88.6336   147.0883   0    9  1 
70757.150000  88.32315   20.3361  229.7490   64.5509   363.6621   131.2060    88.6466   146.9438   0    9  1 
70757.450000  88.32360   20.3364  229.7500   64.5510   353.3884   131.1545    88.6207   147.1686   0    9  1 
70757.750000  88.32330   20.3370  229.7540   64.5503   374.5414   131.6368    88.5872   147.2360   0    9  1 
70758.050000  88.32390   20.3366  229.7540   64.5498   406.2825   130.6977    88.6110   146.9731   0    9  1 
70758.350000  88.31775   20.3365  229.7660   64.5454   426.1671   134.5484    88.4440   146.9576   0    9  1 
70758.650000  87.93720   20.2020  230.2030   64.2113   453.9442   145.4866    87.6701   143.8597   0    9  1 
70758.950000  87.58590   20.0636  230.5770   63.8915   344.6291   133.2965    87.3956   139.8889   0    9  1 
70759.250000  87.00615   19.9247  231.3110   63.4301   155.0980    98.4015    87.1578   137.2587   0    9  1 
70759.550000  86.65275   19.8756  231.8010   63.1743   135.3690    81.4990    86.7109   137.6754   0    9  1 
70759.850000  86.20425   19.8538  232.4720   62.8780   119.3060    93.8842    86.4343   138.1878   0    9  1 
70760.150000  85.88670   19.8547  232.9640   62.6789   155.3631   150.5963    86.2553   138.2341   0    9  1 
70760.450000  85.74135   19.8556  233.1880   62.5876   201.1279   138.2275    86.0663   137.4965   0    9  1 
70760.750000  84.98280   19.8731  234.3560   62.1169   187.0300    87.8208    86.7823   136.1153   0    9  1 
70761.050000  84.73410   19.8776  234.7300   61.9602   148.4516    88.2331    87.1050   135.7139   0    9  1 
70761.350000  84.18075   19.8907  235.5550   61.6110   181.7713   159.9391    87.4890   135.6989   0    9  1 
70761.650000  84.02505   19.8937  235.7830   61.5116   198.7100   309.4978    88.2399   136.6441   0    9  1 
70761.950000  83.38755   19.9163  236.7190   61.1091   271.1399   246.8656    88.9055   139.5421   0    9  1 
70762.250000  83.23800   19.9273  236.9440   61.0181   359.3025   188.4574    89.2801   143.3958   0    9  1 
70762.550000  82.67370   19.9633  237.7740   60.6684   369.2390   155.8939    89.4635   146.5074   0    9  0 
70762.850000  82.45365   19.9838  238.1030   60.5355   306.9327   146.7968    89.1805   147.2403   0    9  0 
70763.150000  82.28670   20.1634  238.5910   60.5488   263.4415   162.5375    91.9253   151.5330   0    9  0 
70763.450000  82.36500   20.3671  238.7860   60.7431   250.3598   174.8052    96.8681   155.3556   0    9  0 
70763.750000  82.50075   20.5216  238.8340   60.9413   257.6279   172.8798    99.7925   157.4216   0    9  0 
70764.050000  82.55805   20.5795  238.8440   61.0196   265.4349   157.6442   101.3513   158.6810   0    9  0 
70764.350000  82.62270   20.6462  238.8590   61.1082   270.6682   156.0403   102.0628   159.2295   0    9  0 
70764.650000  82.64055   20.6608  238.8580   61.1298   274.2986   155.1769   102.2742   159.4745   0    9  0 
70764.950000  82.65360   20.6746  238.8630   61.1472   287.3265   156.2593   102.3097   159.6439   0   10  1 
70765.250000  82.66170   20.6811  238.8640   61.1561   294.6148   150.9490   102.4995   159.8036   0   10  1 
70765.550000  82.66485   20.6838  238.8650   61.1594   290.1068   148.7686   102.5499   160.0396   0   10  1 
70765.850000  82.66635   20.6838  238.8640   61.1600   287.3750   148.8065   102.6305   160.0260   0   10  1 
70766.150000  82.67070   20.6846  238.8620   61.1621   286.4889   147.9500   102.5834   160.1726   0   10  1 
70766.450000  82.73070   20.6990  238.8050   61.2112   321.9459   141.0525   102.6928   160.4667   0   10  1 
70766.750000  82.76970   20.7094  238.7680   61.2445   440.6049   144.1970   102.3813   162.1998   0   10  1 
70767.050000  83.28405   20.8764  238.3180   61.7054   392.6654   155.9042   100.3224   160.6958   0   10  1 
70767.350000  83.63205   20.9830  237.9980   62.0122   209.9992   125.9884    96.2598   151.3069   0   10  1 
70767.650000  84.31065   21.0685  237.1710   62.5223   194.6590   102.7575    94.0151   146.1508   0   10  1 
70767.950000  84.48210   21.0817  236.9460   62.6444   265.8904   108.7563    95.3248   144.5028   0   10  1 
70768.250000  85.11300   21.0767  236.0200   63.0538   217.5999   152.7363    96.0507   145.1987   0   10  1 
70768.550000  85.57200   21.0638  235.3180   63.3419   136.7885   174.3401    96.3132   146.7859   0   10  1 
70768.850000  85.71555   21.0599  235.0960   63.4316   114.4274   171.6114    97.7630   149.8744   0   10  1 
70769.150000  86.23575   21.0472  234.2840   63.7556   106.8556   145.6169    98.8379   154.4328   0   10  1 
70769.450000  86.59305   21.0444  233.7260   63.9804    93.4626   145.5267    97.9008   155.7002   0   10  1 
70769.750000  86.82570   21.0431  233.3590   64.1263   113.3147   169.9811    97.5520   158.3685   0   10  1 
70770.050000  87.33555   21.0412  232.5450   64.4443   139.2494   187.2080    97.6525   160.7135   0   10  1 
70770.350000  87.47370   21.0422  232.3240   64.5310   115.7139   273.0605    96.0524   159.5249   0   10  1 
70770.650000  87.74535   21.0412  231.8810   64.6985   111.6194   263.5238    94.0012   155.0636   0   10  0 
70770.950000  88.30890   21.0452  230.9560   65.0473   192.4181   184.2452    91.9803   150.3493   0   10  0 
70771.250000  88.48125   21.0030  230.6020   65.1199   273.6929   167.8081    90.5342   148.0271   0   11  1 
70771.550000  88.48920   20.9091  230.4450   65.0526   272.1498   162.3139    90.3931   148.3779   0   11  1 
70771.850000  88.47075   20.9117  230.4830   65.0423   206.1862   171.6096    91.1532   149.9128   0   11  1 
70772.150000  88.35105   20.9909  230.8100   65.0286   154.0419   183.8808    92.1950   151.1350   0   11  1 
70772.450000  88.33020   21.0110  230.8780   65.0305   145.7855   193.4886    92.3552   151.6108   0   11  1 
70772.750000  88.32855   21.0114  230.8830   65.0291   131.0189   210.1551    92.2728   152.1436   0   11  1 
70773.050000  88.18155   20.9734  231.0730   64.9093   106.5451   292.7515    92.3445   154.6907   0   11  1 
70773.350000  88.00995   20.9183  231.2740   64.7618   119.2366   277.3335    92.2897   155.0914   0   11  1 
70773.650000  87.45525   20.7288  231.8940   64.2756   133.2729   177.3176    92.4871   151.0542   0   11  1 
70773.950000  87.08580   20.6446  232.3610   63.9822   104.5667   183.5270    92.5076   150.0065   0   11  1 
70774.250000  86.48550   20.5648  233.1900   63.5451    88.0067   172.3803    92.9968   153.2327   0   11  1 
70774.550000  86.23920   20.5557  233.5600   63.3822   100.9830   176.3962    94.1838   153.8942   0   11  1 
70774.850000  85.94355   20.5532  234.0120   63.1918   157.8998   154.5977    94.5882   150.6843   0   11  1 
70775.150000  85.47060   20.5536  234.7310   62.8883   291.4912   113.2426    94.4936   147.1361   0   11  1 
70775.450000  84.92505   20.5610  235.5550   62.5399   256.7014   136.3138    94.4410   144.7674   0   11  1 
70775.750000  84.62580   20.5692  236.0060   62.3503   169.8261   133.4886    93.8199   141.4986   0   11  1 
70776.050000  84.07725   20.5911  236.8300   62.0050   212.1245   107.3200    95.2616   142.8206   0   11  1 
70776.350000  83.92215   20.5958  237.0580   61.9056   350.2849   126.2543    98.9991   148.9876   0   11  1 
70776.650000  83.28510   20.6256  237.9960   61.5023   431.5429   149.1081    99.9511   153.5348   0   11  1 
70776.950000  83.03265   20.6448  238.3730   61.3463   361.7374   146.0311   101.2636   158.3036   0   11  1 
70777.250000  82.64670   20.6709  238.9380   61.1042   342.5178   175.1231   103.2639   160.0799   0   11  0 
70777.550000  82.39635   20.6875  239.3000   60.9461   437.1721   180.6987   105.4887   160.3875   0   11  0 
70777.850000  82.26570   20.9052  239.8030   61.0064   487.2051   208.7580   106.9454   161.0615   0   11  0 
70778.150000  82.30365   20.9946  239.8880   61.0933   478.0677   251.4097   106.2882   164.2943   0   11  0 
70778.450000  82.50990   21.2173  239.9550   61.3849   426.1808   264.4888   105.0052   168.2288   0   11  0 
70778.750000  82.54665   21.2508  239.9580   61.4325   393.9597   270.6971   104.0531   170.0204   0   11  0 
70779.050000  82.62045   21.3226  239.9720   61.5307   367.4984   268.2115   103.5535   171.1911   0   11  0 
70779.350000  82.64310   21.3426  239.9750   61.5585   363.7121   271.2365   103.5972   171.8356   0   11  0 
70779.650000  82.65015   21.3477  239.9740   61.5664   370.2090   274.0555   103.3049   172.2068   0   12  1 
70779.950000  82.65960   21.3552  239.9750   61.5770   375.7776   275.1294   103.3330   171.8996   0   12  1 
70780.250000  82.66320   21.3580  239.9760   61.5806   377.0589   278.3766   103.2212   172.1378   0   12  1 
70780.550000  82.66890   21.3605  239.9750   61.5847   378.3063   281.8716   103.1763   172.0584   0   12  1 
70780.850000  82.66995   21.3601  239.9740   61.5846   387.3140   285.8843   103.3092   172.5882   0   12  1 
70781.150000  82.67070   21.3602  239.9740   61.5847   372.0375   281.8840   103.0234   173.8974   0   12  1 
70781.450000  82.73715   21.3745  239.9090   61.6388   345.0043   238.0733   105.1410   180.5989   0   12  1 
70781.750000  83.20725   21.5148  239.4920   62.0532   335.7119   229.1262   139.9746   232.6383   0   12  1 
70782.050000  83.51910   21.6128  239.2180   62.3313   299.2945   296.6076   146.9217   234.7314   0   12  1 
70782.350000  84.12630   21.7001  238.5100   62.7997   210.0880   151.7442   107.8777   165.6757   0   12  1 
70782.650000  84.47220   21.7287  238.0650   63.0505   198.3014   119.0112   101.2761   154.2251   0   12  1 
70782.950000  85.02630   21.7219  237.2550   63.4131   164.6619   142.8234    96.8937   149.7964   0   12  1 
70783.250000  85.56780   21.7081  236.4350   63.7590   159.5275   175.5018    94.6324   151.2862   0   12  1 
70783.550000  85.71135   21.7053  236.2160   63.8508   201.0401   144.8717    92.3453   153.3736   0   12  1 
70783.850000  86.16450   21.6955  235.5150   64.1382   166.7515   138.6510    91.7611   151.5455   0   12  1 
70784.150000  86.31060   21.6959  235.2920   64.2328   167.1021   148.9556    92.4518   149.9710   0   12  1 
70784.450000  86.89275   21.6848  234.3700   64.5982   169.2092   125.6166    92.8994   149.0698   0   12  1 
70784.750000  87.12465   21.6811  233.9980   64.7431   111.9975   123.1354    94.8251   150.5162   0   12  1 
70785.050000  87.62820   21.6782  233.1860   65.0590   124.2378   123.1597    97.5828   153.4436   0   12  1 
70785.350000  87.76740   21.6807  232.9640   65.1481   159.9770   193.9181    97.9173   154.0802   0   12  1 
70785.650000  88.33905   21.6916  232.0390   65.5122   229.6205   236.4905    97.3633   152.7711   0   12  0 
70785.950000  88.47510   21.6968  231.8200   65.6001   275.4910   228.6591    97.9265   152.1240   0   13  1 
70786.250000  88.65045   21.5641  231.3130   65.6076   250.8217   236.5890    97.6060   150.6496   0   13  1 
70786.550000  88.63095   21.5267  231.2870   65.5671   230.1307   245.5816    97.5957   151.0461   0   13  1 
70786.850000  88.55760   21.5449  231.4430   65.5347   216.2162   262.1030    97.6418   152.3429   0   13  1 
70787.150000  88.42245   21.6281  231.8070   65.5127   217.6892   258.2107    97.4393   152.9761   0   13  1 
70787.450000  88.33770   21.6838  232.0410   65.5010   182.3317   223.0609    97.9106   154.0638   0   13  1 
70787.750000  88.15245   21.6672  232.3250   65.3726   136.4586   153.2487    98.9960   156.0232   0   13  1 
70788.050000  87.43290   21.4879  233.2180   64.7872   134.6751   145.8480    98.2890   154.4438   0   13  1 
70788.350000  87.06420   21.3975  233.6660   64.4868   143.5004   139.1287    97.9223   152.7602   0   13  1 
70788.650000  86.70150   21.3415  234.1510   64.2144   108.2281   149.6812    98.8658   151.2594   0   13  1 
70788.950000  86.14005   21.3134  234.9790   63.8325   111.2605   140.8788    96.4236   147.2862   0   13  1 
70789.250000  85.91445   21.3101  235.3190   63.6838   125.7647   165.5258    93.8646   144.2600   0   13  1 
70789.550000  85.59210   21.3104  235.8070   63.4740   179.7145   136.7420    92.7610   143.6814   0   13  1 
70789.850000  85.14675   21.3181  236.4830   63.1872   260.4435   115.3650    92.4443   144.9433   0   13  1 
70790.150000  84.67635   21.3365  237.2000   62.8892   232.8597   114.1780    93.1470   149.0042   0   13  1 
70790.450000  84.35100   21.3495  237.6890   62.6818   201.9821   174.9504    96.7353   152.9862   0   13  1 
70790.750000  83.90760   21.3787  238.3640   62.4051   287.2911   232.3770   108.5624   172.4377   0   13  1 
70791.050000  83.65560   21.3950  238.7420   62.2467   338.1110   186.5222   110.7781   185.0810   0   13  1 
70791.350000  83.10375   21.4344  239.5640   61.8997   327.4647   253.3168   103.7470   178.5122   0   13  1 
70791.650000  82.95285   21.4477  239.7900   61.8060   331.5207   248.9650    99.6331   165.5598   0   13  0 
70791.950000  82.64610   21.4738  240.2440   61.6139   325.5677   213.1217    97.5684   154.9157   0   13  0 
70792.250000  82.20060   21.5929  241.0210   61.3877   312.5221   201.7490    95.8136   154.1901   0   13  0 
70792.550000  82.23750   21.7377  241.1990   61.5099   296.8863   211.0831    96.7420   159.5783   0   13  0 
70792.850000  82.44210   21.8971  241.1820   61.7569   311.0892   226.4419    98.1462   164.2329   0   13  0 
70793.150000  82.50285   21.9144  241.1300   61.8098   335.9558   236.4796    99.4414   167.2537   0   13  0 
70793.450000  82.61535   21.9989  241.1170   61.9428   355.4785   235.9463   100.3229   168.9244   0   13  0 
70793.750000  82.64295   22.0161  241.1100   61.9722   359.7063   234.3006   100.4467   169.5053   0   13  0 
70794.050000  82.64985   22.0230  241.1130   61.9809   368.1639   225.6135   100.7446   169.6944   0   14  1 
70794.350000  82.66230   22.0289  241.1080   61.9923   373.0360   229.1382   100.9000   170.0456   0   14  1 
70794.650000  82.66875   22.0316  241.1050   61.9979   370.9145   230.1423   100.9466   170.3347   0   14  1 
70794.950000  82.67295   22.0332  241.1040   62.0008   365.6921   231.0247   101.0932   170.4627   0   14  1 
70795.250000  82.67235   22.0335  241.1060   62.0003   365.2176   236.4264   100.9719   170.4821   0   14  1 
70795.550000  82.67415   22.0335  241.1060   62.0003   380.6566   235.6697   101.9499   172.1305   0   14  1 
70795.850000  82.78290   22.0569  241.0000   62.0901   425.4930   244.5583   117.3159   197.0083   0   14  1 
70796.150000  82.88310   22.0815  240.9060   62.1752   322.5184   269.0040   183.0553   305.4686   0   14  1 
70796.450000  83.63370   22.2959  240.2360   62.8329   258.0982   253.4823   174.6629   298.9036   0   14  1 
70796.750000  83.83515   22.3252  240.0070   62.9896   184.9165   217.1001   121.8158   200.3655   0   14  1 
70797.050000  84.58650   22.3972  239.0720   63.5472   201.1788   290.9715   115.5008   183.1787   0   14  1 
70797.350000  84.84795   22.3981  238.7000   63.7235   272.8068   302.6413   109.5774   173.7796   0   14  1 
70797.650000  85.39410   22.3863  237.8880   64.0798   308.5853   176.3074   105.9214   167.3571   0   14  1 
70797.950000  85.54305   22.3854  237.6670   64.1781   236.1093   146.2452   101.6910   164.6499   0   14  1 
70798.250000  86.15265   22.3759  236.7400   64.5734   211.3062   142.1588    97.0025   161.6393   0   14  1 
70798.550000  86.29170   22.3694  236.5180   64.6599   156.5114   142.8607    92.9614   158.0183   0   14  1 
70798.850000  86.88705   22.3683  235.5980   65.0467   131.3048   150.1764    92.7806   158.2256   0   14  1 
70799.150000  87.33690   22.3715  234.8940   65.3390   172.3665   122.6970    91.9946   156.1030   0   14  1 
70799.450000  87.47940   22.3755  234.6730   65.4333   154.0096    94.6425    90.5634   151.5567   0   14  1 
70799.750000  87.91935   22.3791  233.9680   65.7164   177.1352   101.8987    90.2517   149.8315   0   14  0 
70800.050000  88.19130   22.3805  233.5240   65.8895   228.8507   126.0901    90.5035   149.9624   0   14  0 
70800.350000  88.58925   22.3790  232.8590   66.1384   285.3525   139.9905    91.3788   150.9752   0   14  0 
70800.650000  88.66650   22.3056  232.6070   66.1320   338.8496   145.3331    92.7085   152.0117   0   14  0 
70800.950000  88.60530   22.2001  232.5370   66.0146   330.6761   152.9298    92.3921   151.8139   0   14  0 
70801.250000  88.54650   22.2277  232.6840   65.9976   269.4559   135.8291    90.8796   150.8208   0   14  0 
70801.550000  88.37460   22.3399  233.1630   65.9709   232.6935   120.3301    90.4549   150.4015   0   14  0 
70801.850000  88.34310   22.3596  233.2500   65.9650   225.1038   114.4807    90.4051   150.3284   0   14  0 
70802.150000  88.33140   22.3619  233.2760   65.9583   228.7710   114.0462    90.5073   150.3428   0   15  1 
70802.450000  88.32705   22.3630  233.2870   65.9557   233.3684   113.8850    90.4516   150.3899   0   15  1 
70802.750000  88.32375   22.3636  233.2960   65.9531   232.3426   113.1894    90.3814   150.3780   0   15  1 
70803.050000  88.32480   22.3647  233.2970   65.9542   234.5947   118.5924    90.4417   150.5381   0   15  1 
70803.350000  88.32570   22.3654  233.3000   65.9540   230.3534   117.9264    90.4071   150.3641   0   15  1 
70803.650000  88.19160   22.3304  233.4670   65.8425   194.1636   112.9851    90.3509   151.0969   0   15  1 
70803.950000  88.14285   22.3150  233.5220   65.8002   131.4322    93.6081    90.1456   152.6867   0   15  1 
70804.250000  87.46500   22.0870  234.2510   65.2015   128.8938    95.1324    90.2224   154.0549   0   15  1 
70804.550000  87.06075   22.0063  234.7640   64.8832   150.3016   112.1272    90.9738   156.6549   0   15  1 
70804.850000  86.72925   21.9581  235.2070   64.6340   226.6478   101.2669    92.2098   160.5286   0   15  1 
70805.150000  86.24970   21.9418  235.9230   64.3099   280.6671   173.2408    96.9651   166.0596   0   15  1 
70805.450000  85.92615   21.9400  236.4130   64.0963   260.8149   174.6486   100.2239   163.2945   0   15  1 
70805.750000  85.62990   21.9413  236.8610   63.9016   246.0240   143.7099   101.1281   156.4105   0   15  1 
70806.050000  85.16475   21.9591  237.5790   63.6052   204.7869   159.2407   103.6934   156.6603   0   15  1 
70806.350000  84.87285   21.9729  238.0270   63.4196   212.2501   162.3997   109.0435   163.2450   0   15  1 
70806.650000  84.54540   21.9861  238.5200   63.2088   292.5925   268.7521   150.7702   241.8480   0   15  1 
70806.950000  83.91330   22.0123  239.4550   62.7991   301.9930   359.2000   227.8109   382.0429   0   15  1 
70807.250000  83.59860   22.0228  239.9080   62.5919   331.0848   304.1532   199.9550   337.2737   0   15  1 
70807.550000  83.33655   22.0346  240.2860   62.4205   411.6844   248.3418   126.0364   213.1494   0   15  1 
70807.850000  82.77180   22.0738  241.1100   62.0582   290.9685   222.1757   103.8246   172.7735   0   15  0 
70808.150000  82.31280   22.1129  241.7790   61.7660   214.9006   180.9954   105.1031   172.8285   0   15  0 
70808.450000  82.18830   22.1771  242.0440   61.7217   196.5897   171.6100   103.5349   172.3537   0   15  0 
70808.750000  82.29435   22.4226  242.3010   61.9565   191.4003   192.9106   100.7604   166.1532   0   15  0 
70809.050000  82.36920   22.4802  242.2970   62.0462   234.2235   212.2845    98.0202   159.3323   0   15  0 
70809.350000  82.53330   22.6103  242.2960   62.2449   286.4033   219.6993    97.0691   156.3924   0   15  0 
70809.650000  82.58610   22.6484  242.2900   62.3061   320.0392   225.6021    96.4255   154.6015   0   15  0 
70809.950000  82.63815   22.6892  242.2910   62.3678   325.0843   227.7703    96.2649   154.4213   0   15  0 
70810.250000  82.64130   22.6914  242.2910   62.3711   334.7416   233.9506    96.0882   153.8688   0   16  1 
70810.550000  82.66110   22.7043  242.2890   62.3919   341.0212   237.3809    95.9713   153.6484   0   16  1 
70810.850000  82.66425   22.7064  242.2890   62.3951   342.5111   235.0020    95.9994   153.7003   0   16  1 
70811.150000  82.66995   22.7093  242.2880   62.3999   339.2634   234.6979    95.9778   153.3710   0   16  1 
70811.450000  82.67235   22.7102  242.2880   62.4013   342.9180   232.1070    95.9883   152.9415   0   16  1 
70811.750000  82.74225   22.7254  242.2230   62.4590   387.9115   227.0717    95.8152   152.2539   0   16  1 
70812.050000  82.94910   22.7790  242.0390   62.6375   307.6244   159.6843    95.7414   150.5378   0   16  1 
70812.350000  83.42415   22.9189  241.6370   63.0586   250.9406   153.7692    98.0544   148.0734   0   16  1 
70812.650000  83.83290   22.9953  241.2110   63.3910   176.6807   185.2407    99.9335   154.9761   0   16  1 
70812.950000  84.55710   23.0350  240.2750   63.9133   114.0657   136.5635   100.0745   162.4070   0   16  1 
70813.250000  84.88320   23.0243  239.7960   64.1277   103.6031   152.4619   101.1100   162.0523   0   16  1 
70813.550000  85.18725   23.0159  239.3460   64.3277   126.7727   181.0455   103.6165   161.8361   0   16  1 
70813.850000  85.71990   22.9980  238.5390   64.6734   173.9574   164.7679   104.9986   162.1080   0   16  1 
70814.150000  86.10690   22.9873  237.9450   64.9242   154.5475   192.6316   103.6440   158.2738   0   16  1 
70814.450000  86.24730   22.9809  237.7230   65.0130   159.6324   174.1090   100.7709   153.4435   0   16  1 
70814.750000  86.69715   22.9710  237.0210   65.3033   164.6766   138.4987    99.5030   153.1903   0   16  1 
70815.050000  86.97795   22.9636  236.5740   65.4825   169.4310   143.8684    98.9042   154.3740   0   16  1 
70815.350000  87.41460   22.9566  235.8760   65.7622   155.0279   152.5256    96.7691   152.4941   0   16  1 
70815.650000  87.84975   22.9523  235.1720   66.0405   157.3801   140.6197    93.3199   148.2390   0   16  1 
70815.950000  88.12515   22.9551  234.7290   66.2194   137.2701   132.2577    91.9956   146.0935   0   16  0 
70816.250000  88.42605   22.9642  234.2490   66.4182   127.7512   155.9835    90.9949   144.5994   0    0  0 
70816.550000  88.56345   22.9678  234.0270   66.5081   128.0507   150.3139    90.6204   144.1824   0    0  0 
70816.850000  88.56345   22.9678  234.0270   66.5081   125.6176   142.3610    90.4185   144.3434   0    0  0 
70817.150000  88.74810   22.8674  233.5450   66.5514   127.2277   141.5638    90.2562   144.4385   0    0  0 
70817.450000  88.74810   22.8674  233.5450   66.5514   127.7211   142.6394    90.3121   144.3755   0    0  0 
70817.750000  88.74810   22.8674  233.5450   66.5514   141.5549   152.6689   108.0064   167.5069  -1    0  0 
70818.050000  88.71195   22.8008  233.4930   66.4791   142.5577   158.9136   113.0407   174.2748   1    0  0 
70818.350000  88.70325   22.8112  233.5360   66.4772   142.5663   157.3983   113.1313   174.2090   1    0  0 
70818.650000  88.70595   22.8125  233.5370   66.4786   141.3207   156.2356   113.0819   174.1121   1    0  0 
70818.950000  88.70505   22.8108  233.5370   66.4763   140.8701   155.1792   113.1623   174.2647   1    0  0 
70819.250000  88.70835   22.8133  233.5390   66.4790   141.2829   153.8425   113.1489   174.0687   1    0  0 
70819.550000  88.70760   22.8118  233.5390   66.4770   139.7184   153.9345   113.1468   173.9711   1    0  0 
70819.850000  88.70955   22.8126  233.5390   66.4781   141.1960   151.0096   113.1206   174.1456   1    0  0 
70820.150000  88.71015   22.8131  233.5400   66.4784   135.6714   147.7638   102.5367   160.2703  -1    0  0 
70820.450000  88.71060   22.8118  233.5400   66.4766   129.8097   144.6225    92.9607   147.8023  -1    0  0 
70820.750000  88.71225   22.8133  233.5410   66.4783   128.1553   143.0853    90.2534   144.1602   0    0  0 
70821.050000  88.71405   22.8133  233.5410   66.4783   128.4714   145.0302    90.3349   144.2453   0    0  0 
70821.350000  88.71495   22.8128  233.5400   66.4779   129.1157   142.6809    90.2786   144.2351   0    0  0 
70821.650000  88.71705   22.8131  233.5400   66.4783   127.8174   140.0474    90.2476   144.3601   0    0  0 
70821.950000  88.71630   22.8122  233.5410   66.4767   123.2286   135.3984    90.2865   144.2175   0    0  0 
70822.250000  88.71870   22.8128  233.5410   66.4776   117.6493   136.5978    90.2922   144.2428   0    0  0 
70822.550000  88.71960   22.8129  233.5410   66.4776   116.7615   136.5841    90.0907   144.4442   0    0  0 
70822.850000  88.72065   22.8124  233.5410   66.4770   119.9898   137.1439    90.2058   144.2392   0    0  0 
70823.150000  88.72230   22.8129  233.5410   66.4777   124.0357   139.5392    90.2017   144.3417   0    0  0 
70823.450000  88.72350   22.8127  233.5410   66.4774   126.4473   140.0574    90.3157   144.4121   0    0  0 
