#     FILENAME=Skynet_60333_barnard_33-nb_107271_56634.A.cal.txt
#     BASENAME=Skynet_60333_barnard_33-nb_107271_56634
#      CONTROL=SKYNET
#     PROJCODE=Skynet_60333_barnard_33-nb_107271
#     DATAROOT=/raid/scratch/cyborg/SkynetData
#      DATADIR=/raid/scratch/cyborg
#     DATADIR2=/raid/scratch/cyborg/SkynetData/Skynet_60333_barnard_33-nb_1072
#     SCANNAME=2019_06_26_10
#     SRC_NAME=barnard_33-nb
#     OBSERVER=socamrad_21318
#     DATE_OBS=2024-01-24T03:19:52.000
#        OBSID=107271
#      SCANNUM=56634
#          MJD=60333.1387963
#          UTC=11992
#     SCANTYPE=ralongmap
#     DATAMODE=HIRES
#     RECEIVER=Rx1_2
#      OBSFREQ=1395.0000
# Actual_FREQ1=1421.8850,
# Actual_FREQ2=1406.2600
#    LO1Tuning=6856.2600
#     RFFILTER=1355_1435
#        OBSBW=-15.6250
#     EFFBANDW=15.6250
#        NCHAN=1024
#    STARTCHAN=51
#     STOPCHAN=972
#         TINT=0.1342
#         TBIN=0.00419430
#       ACCLEN=2048 
#     DURATION=176.09
#     EXPOSURE=118.38
#        FOCUS=37.049
#       RA,DEC=05:32:14.91, -04:40:06.56
#      RA(deg)=85.17580
#     DEC(deg)=-2.44630
#   WIDTH(deg)=4.4307x4.8706
#    AZIM(deg)=191.5431
#    ELEV(deg)=48.3010
#     COORDREF=RA_DEC_
#         HREF=85.2454
#         VREF=-2.4583
#      RADESYS=FK5
#       OFFSYS=AZEL
#      EQUINOX=2000.00
#     IFATTENS=11.00, 12.00
#   BALANCELEV=1.200 
#   POWER_XLYR=[1.72, 2.23] 
#       VELDEF=RADI-OBS 
#     VELOCITY=0.000 
#         NPOL=2 
#      POLMODE=Linear 
#      POLTYPE=XXYY 
#      WARNING=None 
#     NOISECAL=HI 
#       PRECAL=2 
#      POSTCAL=2 
#     CRYOTEMP=289 
#      BOXTEMP=23 
#         TSYS=XX1:133.61, YY1:135.99
#         TSYS=XX2:122.35, YY2:148.87
#         TCAL=XX1:9.17, YY1:10.07
#         TCAL=XX2:9.16, YY2:9.99
# Calibrated Continuum 
#                
#UTC_Time(s)   Ra(deg)  Dec(deg)   Az(deg)   El(deg)        XX1        YY1        XX2        YY2  Cal   Sweeps 
11992.000000  83.06220   -4.6685  193.4920   45.8379   136.3469   137.4065   123.8188   148.3731  -1    0  0 
11992.134218  83.06220   -4.6685  193.4920   45.8379   142.0545   143.7554   129.4765   154.7100   1    0  0 
11992.268436  83.06295   -4.6685  193.4920   45.8379   141.9817   143.4533   129.4322   154.4229   1    0  0 
11992.402654  83.06370   -4.6683  193.4920   45.8381   145.0532   147.0712   132.6061   157.6761   1    0  0 
11992.536872  83.06370   -4.6683  193.4920   45.8381   144.8996   147.0837   132.4600   157.9088   1    0  0 
11992.671090  83.06475   -4.6685  193.4920   45.8379   144.8197   147.1625   132.5481   157.9785   1    0  0 
11992.805308  83.06550   -4.6683  193.4920   45.8381   144.9288   147.0129   132.4530   157.7587   1    0  0 
11992.939526  83.06550   -4.6683  193.4920   45.8381   145.0087   147.1882   132.3378   158.0775   1    0  0 
11993.073744  83.06640   -4.6683  193.4920   45.8381   144.7996   147.0976   132.3376   157.9833   1    0  0 
11993.207962  83.06745   -4.6682  193.4920   45.8382   144.7842   146.7761   132.5613   157.8409   1    0  0 
11993.342180  83.06745   -4.6682  193.4920   45.8382   145.4031   147.0434   132.4170   157.9110   1    0  0 
11993.476398  83.06805   -4.6685  193.4920   45.8379   144.9463   147.1576   132.4745   157.7710   1    0  0 
11993.610616  83.06895   -4.6683  193.4920   45.8381   145.0454   147.0574   132.4118   157.8917   1    0  0 
11993.744834  83.06895   -4.6683  193.4920   45.8381   144.8629   146.9135   132.4502   157.8911   1    0  0 
11993.879052  83.06970   -4.6685  193.4920   45.8379   144.9015   146.9701   132.5373   157.7740   1    0  0 
11994.013270  83.07060   -4.6682  193.4920   45.8382   144.1967   146.3048   131.8082   157.1788  -1    0  0 
11994.147488  83.07060   -4.6682  193.4920   45.8382   138.4811   139.8242   126.0428   150.6588  -1    0  0 
11994.281706  83.07150   -4.6683  193.4920   45.8381   137.9096   139.3086   125.5057   150.1204  -1    0  0 
11994.415924  83.07225   -4.6683  193.4920   45.8381   135.4985   136.5578   123.1187   147.6093   0    0  0 
11994.550142  83.07225   -4.6683  193.4920   45.8381   135.5530   136.6306   123.0700   147.4980   0    0  0 
11994.684360  83.07300   -4.6685  193.4920   45.8379   135.3401   136.2593   123.1450   147.5403   0    0  0 
11994.818578  83.07300   -4.6685  193.4920   45.8379   135.3376   136.3577   123.0477   147.5317   0    0  0 
11994.952796  83.07405   -4.6685  193.4920   45.8379   135.4984   136.6954   123.1201   147.4615   0    0  0 
11995.087014  83.07465   -4.6685  193.4920   45.8379   135.2911   136.5890   122.9068   147.7040   0    0  0 
11995.221232  83.07465   -4.6685  193.4920   45.8379   135.3474   136.5531   123.0514   147.3140   0    0  0 
11995.355450  83.07570   -4.6683  193.4920   45.8381   135.2457   136.6342   122.8441   147.3869   0    0  0 
11995.489668  83.07675   -4.6683  193.4920   45.8381   135.3070   136.4627   122.9856   147.4222   0    0  0 
11995.623886  83.07675   -4.6683  193.4920   45.8381   135.3026   136.3201   122.8761   147.2940   0    0  0 
11995.758104  83.07750   -4.6684  193.4920   45.8379   135.5874   136.3201   123.1020   147.3389   0    0  0 
11995.892322  83.07840   -4.6682  193.4920   45.8381   135.4944   136.2491   122.9735   147.3753   0    0  0 
11996.026540  83.07840   -4.6682  193.4920   45.8381   135.4877   136.2483   123.0261   147.5802   0    0  0 
11996.160758  83.07930   -4.6684  193.4920   45.8379   135.4696   136.3964   122.9782   147.5947   0    0  0 
11996.294976  83.07990   -4.6682  193.4920   45.8381   135.6290   136.3833   123.1480   147.5998   0    0  0 
11996.429194  83.07990   -4.6682  193.4920   45.8381   135.3589   136.4491   122.8803   147.3156   0    0  0 
11996.563412  83.08095   -4.6684  193.4920   45.8379   135.6365   136.5984   122.9525   147.4425   0    0  0 
11996.697630  83.08170   -4.6682  193.4920   45.8381   135.4147   136.4522   123.1578   147.5788   0    0  0 
11996.831848  83.08170   -4.6682  193.4920   45.8381   135.3232   136.4481   122.9547   147.3760   0    0  1 
11996.966066  83.08275   -4.6682  193.4920   45.8381   135.3368   136.3751   122.7989   147.5406   0    0  1 
11997.100284  83.08350   -4.6682  193.4920   45.8381   135.4052   136.5858   122.7921   147.5611   0    0  1 
11997.234502  83.08350   -4.6682  193.4920   45.8381   135.3448   136.5597   122.9506   147.7100   0    0  1 
11997.368720  83.08410   -4.6684  193.4920   45.8379   135.2776   136.4410   122.8636   147.4799   0    0  1 
11997.502938  83.08515   -4.6682  193.4920   45.8381   135.2556   136.6245   122.8109   147.2470   0    0  1 
11997.637156  83.08515   -4.6682  193.4920   45.8381   135.2170   136.5261   122.9467   147.7199   0    0  1 
11997.771374  83.08620   -4.6682  193.4920   45.8381   135.2616   136.5094   122.7187   147.5966   0    0  1 
11997.905592  83.08620   -4.6682  193.4920   45.8381   135.3055   136.4528   122.7955   147.6446   0    0  1 
11998.039810  83.08800   -4.6682  193.4920   45.8381   135.4355   136.2883   122.8035   147.4773   0    0  1 
11998.174028  83.08800   -4.6682  193.4920   45.8381   135.3943   136.6044   122.9887   147.4476   0    0  1 
11998.308246  83.08800   -4.6682  193.4920   45.8381   135.3689   136.3167   123.0357   147.6671   0    0  1 
11998.442464  83.09070   -4.6685  193.4900   45.8381   135.4931   136.6678   123.0537   147.4064   0    0  1 
11998.576682  83.09070   -4.6685  193.4900   45.8381   135.2750   136.5099   122.8614   147.7844   0    0  1 
11998.710900  83.09070   -4.6685  193.4900   45.8381   135.3861   136.4549   122.9033   147.6049   0    0  1 
11998.845118  83.24565   -4.4935  193.3210   46.0387   135.2771   136.1791   123.0776   147.5617   0    0  1 
11998.979336  83.39295   -4.4361  193.1290   46.1220   135.3527   136.6078   122.8631   147.7244   0    0  1 
11999.113554  83.39295   -4.4361  193.1290   46.1220   135.2394   136.6570   122.8721   147.8543   0    0  1 
11999.247772  83.39295   -4.4361  193.1290   46.1220   135.1856   136.7048   122.9484   147.6509   0    0  1 
11999.381990  83.59335   -4.4101  192.8530   46.1836   135.2579   136.4805   122.8489   147.6440   0    0  1 
11999.516208  83.59335   -4.4101  192.8530   46.1836   135.2288   136.4619   122.8149   147.5643   0    0  1 
11999.650426  83.88045   -4.3859  192.4530   46.2578   135.0952   136.5209   122.6914   147.6878   0    0  1 
11999.784644  83.88045   -4.3859  192.4530   46.2578   135.2030   136.6570   122.7185   147.6292   0    0  1 
11999.918862  83.88045   -4.3859  192.4530   46.2578   135.2804   136.5550   122.8532   147.5159   0    0  1 
12000.053080  84.40605   -4.3906  191.7050   46.3414   135.2999   136.5333   122.7700   147.6050   0    0  1 
12000.187298  84.67305   -4.3966  191.3230   46.3783   135.3234   136.3110   122.6881   147.6177   0    0  1 
12000.321516  84.67305   -4.3966  191.3230   46.3783   135.2729   136.4325   122.6299   147.5868   0    0  1 
12000.455734  84.67305   -4.3966  191.3230   46.3783   135.2990   136.3481   122.8889   147.2247   0    0  1 
12000.589952  85.20780   -4.4178  190.5550   46.4390   135.2038   136.0735   122.7594   147.1457   0    0  1 
12000.724170  85.20780   -4.4178  190.5550   46.4390   135.2023   136.0182   122.6502   147.2884   0    0  1 
12000.858388  85.31145   -4.4213  190.4060   46.4507   135.2344   136.1179   122.4890   147.1154   0    0  1 
12000.992606  85.46550   -4.4287  190.1840   46.4655   134.9834   136.1439   122.5166   147.4247   0    0  1 
12001.126824  85.46550   -4.4287  190.1840   46.4655   135.1012   136.2056   122.3978   147.3434   0    0  1 
12001.261042  85.69365   -4.4400  189.8550   46.4864   135.1425   136.2530   122.4137   147.4074   0    0  1 
12001.395260  85.69365   -4.4400  189.8550   46.4864   135.1329   136.2208   122.6459   147.3149   0    0  1 
12001.529478  86.25615   -4.4550  189.0450   46.5462   135.1055   135.9122   122.5000   147.3594   0    0  0 
12001.663696  86.48730   -4.4602  188.7120   46.5699   135.2317   135.9688   122.6244   147.0661   0    0  0 
12001.797914  86.48730   -4.4602  188.7120   46.5699   135.0539   135.9933   122.6017   147.2098   0    0  0 
12001.932132  86.48730   -4.4602  188.7120   46.5699   135.3840   136.1751   122.5876   147.2303   0    0  0 
12002.066350  86.74065   -4.4626  188.3470   46.5980   135.2370   136.1450   122.3847   147.2376   0    0  0 
12002.200568  86.74065   -4.4626  188.3470   46.5980   134.9951   136.2954   122.4588   147.5082   0    0  0 
12002.334786  86.96955   -4.5333  188.0060   46.5541   135.0346   136.1708   122.3556   147.2425   0    0  0 
12002.469004  87.17280   -4.5117  187.7170   46.5982   135.1494   136.4362   122.4722   147.4866   0    0  0 
12002.603222  87.17280   -4.5117  187.7170   46.5982   135.2289   136.1636   122.4404   147.3356   0    0  0 
12002.737440  87.33510   -4.4972  187.4860   46.6301   135.3217   135.9112   122.6460   147.2695   0    0  0 
12002.871658  87.40080   -4.5053  187.3910   46.6289   135.1983   135.9963   122.6457   147.2343   0    0  0 
12003.005876  87.40080   -4.5053  187.3910   46.6289   135.1562   136.0053   122.7228   147.3325   0    0  0 
12003.140094  87.43365   -4.4894  187.3470   46.6481   134.9952   135.7984   122.6070   147.3142   0    0  0 
12003.274312  87.42405   -4.4888  187.3620   46.6476   135.0782   135.7596   122.7722   146.9917   0    0  0 
12003.408530  87.42405   -4.4888  187.3620   46.6476   135.2458   135.9780   122.8043   147.1299   0    1  1 
12003.542748  87.43650   -4.4798  187.3470   46.6577   135.2089   136.0011   122.6006   147.0473   0    1  1 
12003.676966  87.44025   -4.4775  187.3430   46.6603   135.1683   136.0140   122.5521   147.1756   0    1  1 
12003.811184  87.44025   -4.4775  187.3430   46.6603   135.0454   136.0904   122.5265   147.1488   0    1  1 
12003.945402  87.44355   -4.4798  187.3390   46.6583   135.1610   135.8954   122.6740   147.0845   0    1  1 
12004.079620  87.44805   -4.4754  187.3340   46.6631   135.1359   135.9762   122.5530   147.3408   0    1  1 
12004.213838  87.44805   -4.4754  187.3340   46.6631   135.1836   135.9604   122.6024   147.0349   0    1  1 
12004.348056  87.44895   -4.4768  187.3340   46.6617   135.1538   135.8834   122.5978   147.3365   0    1  1 
12004.482274  87.45285   -4.4758  187.3310   46.6629   135.2894   135.9540   122.7129   147.1541   0    1  1 
12004.616492  87.45285   -4.4758  187.3310   46.6629   135.3088   136.0555   122.6397   147.3181   0    1  1 
12004.750710  87.45540   -4.4754  187.3290   46.6634   135.0058   136.0307   122.5804   147.0709   0    1  1 
12004.884928  87.45540   -4.4754  187.3290   46.6634   135.2757   136.0760   122.5719   147.1972   0    1  1 
12005.019146  87.45540   -4.4754  187.3290   46.6634   134.9052   136.2173   122.5051   147.5153   0    1  1 
12005.153364  87.43710   -4.4970  187.3540   46.6399   134.9243   136.1476   122.5412   147.2598   0    1  1 
12005.287582  87.43710   -4.4970  187.3540   46.6399   134.8922   136.1144   122.4872   147.3547   0    1  1 
12005.421800  87.43710   -4.4970  187.3540   46.6399   134.8974   135.8984   122.4420   147.2347   0    1  1 
12005.556018  87.32310   -4.6019  187.5040   46.5233   134.9979   135.9005   122.5149   147.1701   0    1  1 
12005.690236  87.01590   -4.6677  187.9390   46.4239   135.1486   135.9245   122.4419   147.2204   0    1  1 
12005.824454  87.01590   -4.6677  187.9390   46.4239   134.8455   135.9987   122.4057   147.1092   0    1  1 
12005.958672  87.01590   -4.6677  187.9390   46.4239   134.6548   136.0025   122.2181   147.1079   0    1  1 
12006.092890  86.71425   -4.7036  188.3690   46.3532   134.7068   135.9918   122.1835   147.1507   0    1  1 
12006.227108  86.71425   -4.7036  188.3690   46.3532   134.9029   135.8925   122.4922   147.1973   0    1  1 
12006.361326  86.40105   -4.7214  188.8170   46.2973   134.9730   136.1027   122.4529   146.9671   0    1  1 
12006.495544  86.40105   -4.7214  188.8170   46.2973   134.9804   135.9821   122.3621   147.3218   0    1  1 
12006.629762  86.40105   -4.7214  188.8170   46.2973   134.9774   135.9555   122.4607   147.0793   0    1  1 
12006.763980  86.15535   -4.7335  189.1680   46.2540   135.0435   135.8349   122.5456   147.0471   0    1  1 
12006.898198  85.57695   -4.7532  189.9940   46.1561   135.0333   135.8145   122.0740   147.1624   0    1  1 
12007.032416  85.57695   -4.7532  189.9940   46.1561   135.0305   135.8461   122.3886   146.9098   0    1  1 
12007.166634  85.57695   -4.7532  189.9940   46.1561   135.2830   136.2962   122.6972   147.5383   0    1  1 
12007.300852  85.34175   -4.7606  190.3290   46.1151   135.2112   135.9008   122.6958   147.3206   0    1  1 
12007.435070  85.34175   -4.7606  190.3290   46.1151   135.3836   136.1631   122.8659   147.3741   0    1  1 
12007.569288  85.07850   -4.7663  190.7040   46.0705   135.4703   136.3273   122.8595   147.7581   0    1  1 
12007.703506  84.76155   -4.7763  191.1540   46.0120   135.6370   136.5706   122.9694   147.6832   0    1  1 
12007.837724  84.76155   -4.7763  191.1540   46.0120   138.2377   138.6293   125.3698   149.9195   0    1  1 
12007.971942  84.49935   -4.7819  191.5260   45.9647   139.4105   139.6735   126.6955   151.3659   0    1  1 
12008.106160  84.10290   -4.7874  192.0880   45.8937   140.5065   140.7081   127.7680   152.2045   0    1  0 
12008.240378  84.10290   -4.7874  192.0880   45.8937   139.5704   140.1907   126.8366   151.5938   0    1  0 
12008.374596  84.10290   -4.7874  192.0880   45.8937   137.6508   138.3369   124.9907   149.8634   0    1  0 
12008.508814  83.75865   -4.7872  192.5760   45.8346   136.5842   137.0814   123.9266   148.6731   0    1  0 
12008.643032  83.75865   -4.7872  192.5760   45.8346   135.0515   136.0978   122.5474   147.2617   0    1  0 
12008.777250  83.45085   -4.7812  193.0130   45.7855   135.0974   136.0718   122.5676   147.0950   0    1  0 
12008.911468  83.25660   -4.6890  193.0130   45.7855   135.1757   136.3348   122.6300   147.5356   0    1  0 
12009.045686  83.25660   -4.6890  193.3120   45.8406   135.0108   136.2695   122.4474   147.4102   0    1  0 
12009.179904  83.11110   -4.5145  193.5660   45.9848   135.0996   136.2391   122.5873   147.6496   0    1  0 
12009.314122  83.11110   -4.5145  193.5660   45.9848   134.9267   136.2212   122.3332   147.5175   0    1  0 
12009.448340  83.03865   -4.4281  193.6930   46.0559   135.1207   136.2774   122.6665   147.3702   0    1  0 
12009.582558  83.02305   -4.3918  193.7260   46.0885   134.9364   136.1947   122.6142   147.4380   0    1  0 
12009.716776  83.02305   -4.3918  193.7260   46.0885   135.2841   136.0372   122.6215   147.5744   0    1  0 
12009.850994  83.03040   -4.3414  193.7310   46.1392   135.1717   136.1305   122.7516   147.3958   0    1  0 
12009.985212  83.02350   -4.3312  193.7450   46.1477   135.1401   135.8540   122.4572   147.1799   0    1  0 
12010.119430  83.02350   -4.3312  193.7450   46.1477   135.1708   136.1848   122.3702   147.5768   0    1  0 
12010.253648  83.02380   -4.3188  193.7490   46.1598   135.1860   136.1229   122.7167   147.6278   0    1  0 
12010.387866  83.02305   -4.3087  193.7540   46.1695   135.1212   135.9073   122.6130   147.4176   0    2  1 
12010.522084  83.02305   -4.3087  193.7540   46.1695   134.9259   136.2927   122.7611   147.3764   0    2  1 
12010.656302  83.02260   -4.3034  193.7570   46.1745   135.1087   136.1243   122.5345   147.5906   0    2  1 
12010.790520  83.02305   -4.2967  193.7600   46.1809   134.8721   136.0664   122.4649   147.2738   0    2  1 
12010.924738  83.02305   -4.2967  193.7600   46.1809   135.0457   136.1816   122.5568   147.1846   0    2  1 
12011.058956  83.02455   -4.2931  193.7600   46.1846   135.0858   136.0958   122.3603   147.2082   0    2  1 
12011.193174  83.02485   -4.2918  193.7610   46.1858   134.7895   135.9390   122.5888   147.4455   0    2  1 
12011.327392  83.02485   -4.2918  193.7610   46.1858   135.1403   135.7676   122.5757   147.1273   0    2  1 
12011.461610  83.02710   -4.2897  193.7610   46.1879   135.1380   136.0464   122.7576   147.3320   0    2  1 
12011.595828  83.02800   -4.2907  193.7610   46.1869   135.0773   135.8473   122.5030   147.4090   0    2  1 
12011.730046  83.02800   -4.2907  193.7610   46.1869   135.1556   136.1553   122.7250   147.4984   0    2  1 
12011.864264  83.02800   -4.2907  193.7610   46.1869   134.9237   136.1147   122.5977   147.2861   0    2  1 
12011.998482  83.03625   -4.2869  193.7520   46.1920   134.9409   136.0539   122.6166   147.4217   0    2  1 
12012.132700  83.03625   -4.2869  193.7520   46.1920   135.0675   135.8141   122.5452   147.1487   0    2  1 
12012.266918  83.03625   -4.2869  193.7520   46.1920   134.9434   136.1365   122.3889   147.2154   0    2  1 
12012.401136  83.23605   -4.0869  193.5260   46.4260   134.9966   136.1838   122.4440   147.3714   0    2  1 
12012.535354  83.23605   -4.0869  193.5260   46.4260   134.9846   136.0391   122.4545   147.1734   0    2  1 
12012.669572  83.35875   -4.0499  193.3620   46.4851   134.8463   135.9393   122.2251   147.2982   0    2  1 
12012.803790  83.35875   -4.0499  193.3620   46.4851   134.9615   135.8584   122.3666   147.4944   0    2  1 
12012.938008  83.35875   -4.0499  193.3620   46.4851   135.1662   136.0362   122.2898   147.1669   0    2  1 
12013.072226  83.52210   -4.0352  193.1340   46.5295   135.1385   136.0144   122.3198   147.4513   0    2  1 
12013.206444  83.98860   -4.0110  192.4750   46.6361   134.9921   135.9926   122.2439   147.1791   0    2  1 
12013.340662  83.98860   -4.0110  192.4750   46.6361   134.7884   135.8969   122.3344   147.3578   0    2  1 
12013.474880  83.98860   -4.0110  192.4750   46.6361   134.8138   136.1493   122.4031   147.3187   0    2  1 
12013.609098  84.21870   -4.0145  192.1450   46.6720   135.1103   136.1560   122.4759   147.4576   0    2  1 
12013.743316  84.21870   -4.0145  192.1450   46.6720   134.8769   136.0075   122.4185   147.4388   0    2  1 
12013.877534  84.71340   -4.0268  191.4330   46.7410   134.8902   135.9320   122.3367   147.5063   0    2  1 
12014.011752  84.71340   -4.0268  191.4330   46.7410   135.0333   136.0718   122.3349   147.7012   0    2  1 
12014.145970  84.71340   -4.0268  191.4330   46.7410   134.9660   136.0641   122.2901   147.1394   0    2  1 
12014.280188  85.01745   -4.0361  190.9940   46.7793   134.9035   136.0575   122.2017   147.2378   0    2  1 
12014.414406  85.27170   -4.0453  190.6260   46.8086   134.8397   135.8766   122.2657   147.3905   0    2  1 
12014.548624  85.27170   -4.0453  190.6260   46.8086   135.0103   136.0566   122.4005   147.2088   0    2  1 
12014.682842  85.50045   -4.0572  190.2940   46.8303   134.7958   136.0611   122.2613   147.2341   0    2  1 
12014.817060  85.83045   -4.0661  189.8160   46.8679   135.0512   135.9041   122.2770   147.2276   0    2  1 
12014.951278  85.83045   -4.0661  189.8160   46.8679   134.7306   136.0134   122.3156   147.1089   0    2  1 
12015.085496  86.28660   -4.0807  189.1540   46.9142   134.7143   135.8722   122.1119   146.9458   0    2  1 
12015.219714  86.54220   -4.0848  188.7830   46.9424   134.7057   135.5929   122.2554   146.9956   0    2  0 
12015.353932  86.54220   -4.0848  188.7830   46.9424   134.8309   135.9277   122.0860   147.2339   0    2  0 
12015.488150  86.54220   -4.0848  188.7830   46.9424   134.9522   136.0356   122.3355   147.2259   0    2  0 
12015.622368  86.76885   -4.0884  188.4540   46.9664   134.9149   136.0318   122.4785   147.2920   0    2  0 
12015.756586  86.76885   -4.0884  188.4540   46.9664   134.9558   135.9566   122.5403   147.1917   0    2  0 
12015.890804  87.00315   -4.1623  188.1020   46.9202   135.0484   135.9877   122.2131   147.6114   0    2  0 
12016.025022  87.00315   -4.1623  188.1020   46.9202   134.9640   135.9049   122.3089   147.1781   0    2  0 
12016.159240  87.10020   -4.1720  187.9600   46.9216   134.9523   135.9734   122.4604   147.4674   0    2  0 
12016.293458  87.30855   -4.1243  187.6660   46.9921   134.9607   136.0178   122.2457   147.4349   0    2  0 
12016.427676  87.30855   -4.1243  187.6660   46.9921   134.9917   136.0128   122.1213   147.5456   0    2  0 
12016.561894  87.40095   -4.1369  187.5310   46.9894   134.8028   135.9698   122.2431   147.6918   0    2  0 
12016.696112  87.43365   -4.1262  187.4860   47.0035   135.1449   135.7645   122.2483   147.3383   0    2  0 
12016.830330  87.43365   -4.1262  187.4860   47.0035   134.9463   135.8656   122.3161   147.2385   0    3  1 
12016.964548  87.42615   -4.1208  187.4990   47.0079   134.7772   135.9464   122.2749   147.0680   0    3  1 
12017.098766  87.43320   -4.1184  187.4900   47.0110   134.8316   135.8405   122.2703   147.5014   0    3  1 
12017.232984  87.43320   -4.1184  187.4900   47.0110   134.9137   136.1538   122.2782   147.6356   0    3  1 
12017.367202  87.43965   -4.1118  187.4830   47.0182   134.9347   136.1616   122.3858   147.5970   0    3  1 
12017.501420  87.44265   -4.1127  187.4800   47.0175   134.9505   135.8929   122.2896   147.2422   0    3  1 
12017.635638  87.44265   -4.1127  187.4800   47.0175   134.8290   135.8919   122.0416   147.6051   0    3  1 
12017.769856  87.44760   -4.1067  187.4750   47.0239   134.6784   135.8126   122.2632   147.1182   0    3  1 
12017.904074  87.45285   -4.1062  187.4700   47.0248   134.6843   135.8946   122.1155   147.2220   0    3  1 
12018.038292  87.45285   -4.1062  187.4700   47.0248   134.8006   135.8525   122.3293   147.0948   0    3  1 
12018.172510  87.45285   -4.1062  187.4700   47.0248   134.7326   135.8940   122.1493   147.3773   0    3  1 
12018.306728  87.45420   -4.1080  187.4700   47.0229   134.8781   135.9577   122.3291   147.5567   0    3  1 
12018.440946  87.45420   -4.1080  187.4700   47.0229   134.8646   135.8607   122.2261   147.5703   0    3  1 
12018.575164  87.41235   -4.1537  187.5250   46.9729   134.6377   136.0424   122.3381   147.7624   0    3  1 
12018.709382  87.41235   -4.1537  187.5250   46.9729   134.7886   135.8117   122.2434   147.3370   0    3  1 
12018.843600  87.41235   -4.1537  187.5250   46.9729   134.9487   136.0629   122.2640   147.4798   0    3  1 
12018.977818  87.28065   -4.2600  187.7010   46.8527   134.9749   135.8341   122.4338   147.3015   0    3  1 
12019.112036  87.07380   -4.2933  187.9980   46.7964   134.8970   135.9959   122.1855   147.4438   0    3  1 
12019.246254  87.07380   -4.2933  187.9980   46.7964   134.9714   135.9127   122.3491   147.4381   0    3  1 
12019.380472  87.07380   -4.2933  187.9980   46.7964   134.6789   135.7777   122.1358   147.4283   0    3  1 
12019.514690  87.07380   -4.2933  187.9980   46.7964   134.7055   136.0182   122.1755   147.2102   0    3  1 
12019.648908  86.82600   -4.3318  188.3520   46.7293   134.6873   136.0981   122.2607   147.4845   0    3  1 
12019.783126  86.29590   -4.3643  189.1150   46.6313   134.9343   135.9084   122.1807   147.3523   0    3  1 
12019.917344  86.29590   -4.3643  189.1150   46.6313   134.8492   135.9147   122.0874   147.4468   0    3  1 
12020.051562  86.29590   -4.3643  189.1150   46.6313   134.7694   135.9541   122.2292   147.3624   0    3  1 
12020.185780  85.71585   -4.3880  189.9490   46.5297   135.0235   135.7683   122.2297   147.3614   0    3  1 
12020.319998  85.71585   -4.3880  189.9490   46.5297   134.6960   135.8546   122.2737   147.1518   0    3  1 
12020.454216  85.71585   -4.3880  189.9490   46.5297   134.8537   135.9413   122.0339   147.2177   0    3  1 
12020.588434  85.24590   -4.4031  190.6230   46.4466   134.8793   135.8261   122.1755   147.2738   0    3  1 
12020.722652  85.24590   -4.4031  190.6230   46.4466   134.9348   136.0043   122.4205   147.3592   0    3  1 
12020.856870  85.06320   -4.4059  190.8850   46.4162   135.0560   135.9706   122.4374   147.6743   0    3  1 
12020.991088  84.90555   -4.4130  191.1100   46.3848   135.3378   136.0977   122.3666   147.6169   0    3  1 
12021.125306  84.90555   -4.4130  191.1100   46.3848   134.9174   136.2515   122.2883   147.7396   0    3  1 
12021.259524  84.67305   -4.4190  191.4420   46.3421   135.1782   136.4211   122.3446   147.7330   0    3  1 
12021.393742  84.09345   -4.4292  192.2690   46.2358   134.9538   136.2538   122.3432   147.6836   0    3  1 
12021.527960  84.09345   -4.4292  192.2690   46.2358   134.9167   136.0516   122.3162   147.7632   0    3  0 
12021.662178  83.85690   -4.4311  192.6060   46.1929   134.9030   136.2690   122.3843   147.6890   0    3  0 
12021.796396  83.85690   -4.4311  192.6060   46.1929   134.8853   136.3666   122.3743   147.5985   0    3  0 
12021.930614  83.85690   -4.4311  192.6060   46.1929   135.1329   136.1122   122.4860   147.6336   0    3  0 
12022.064832  83.59665   -4.4303  192.9770   46.1472   135.0974   135.9726   122.4312   147.2977   0    3  0 
12022.199050  83.33265   -4.3769  193.3670   46.1512   134.9617   135.9526   122.3087   147.4200   0    3  0 
12022.333268  83.33265   -4.3769  193.3670   46.1512   134.6894   135.9283   122.0696   147.2731   0    3  0 
12022.467486  83.18100   -4.2412  193.6200   46.2561   134.6714   135.9015   122.0585   147.3221   0    3  0 
12022.601704  83.08680   -4.1224  193.7880   46.3548   134.2603   135.9401   121.9387   147.4081   0    3  0 
12022.735922  83.08680   -4.1224  193.7880   46.3548   134.4333   135.9771   121.9679   147.4895   0    3  0 
12022.870140  83.03535   -4.0512  193.8820   46.4147   134.6626   135.8413   122.0912   147.4944   0    3  0 
12023.004358  83.02635   -3.9983  193.9110   46.4648   134.7232   135.8312   121.8839   147.3788   0    3  0 
12023.138576  83.02635   -3.9983  193.9110   46.4648   134.6699   135.7893   121.9975   147.1674   0    3  0 
12023.272794  83.02950   -3.9695  193.9160   46.4935   134.6006   135.6719   122.1538   147.2366   0    3  0 
12023.407012  83.02485   -3.9581  193.9270   46.5036   134.5519   135.7741   122.0372   146.8521   0    3  0 
12023.541230  83.02485   -3.9581  193.9270   46.5036   134.6340   135.6148   122.0073   147.0641   0    3  0 
12023.675448  83.02515   -3.9460  193.9310   46.5154   134.7809   135.6761   122.2309   147.0942   0    4  1 
12023.809666  83.02350   -3.9351  193.9380   46.5256   134.7438   135.5360   122.0156   147.1095   0    4  1 
12023.943884  83.02350   -3.9351  193.9380   46.5256   134.6922   135.5365   122.2516   147.1803   0    4  1 
12024.078102  83.02410   -3.9311  193.9390   46.5295   134.8984   135.6719   122.1854   147.0973   0    4  1 
12024.212320  83.02410   -3.9311  193.9390   46.5295   134.7697   135.5792   122.0995   147.1757   0    4  1 
12024.346538  83.02470   -3.9265  193.9410   46.5340   134.9291   135.8765   122.1808   147.0726   0    4  1 
12024.480756  83.02485   -3.9237  193.9430   46.5365   134.9067   135.5838   122.3204   147.1559   0    4  1 
12024.614974  83.02485   -3.9237  193.9430   46.5365   134.8081   135.8090   122.3587   147.0830   0    4  1 
12024.749192  83.02665   -3.9224  193.9430   46.5379   134.6147   136.0203   122.1149   147.3815   0    4  1 
12024.883410  83.02800   -3.9213  193.9430   46.5390   134.7764   135.6991   122.1087   147.0864   0    4  1 
12025.017628  83.02800   -3.9213  193.9430   46.5390   134.8497   135.7844   122.2626   146.9941   0    4  1 
12025.151846  83.02800   -3.9213  193.9430   46.5390   134.7899   135.5535   121.9542   147.1196   0    4  1 
12025.286064  83.05260   -3.9007  193.9160   46.5637   134.7026   135.7594   122.0438   147.3140   0    4  1 
12025.420282  83.05260   -3.9007  193.9160   46.5637   134.7276   135.8507   122.0032   147.1028   0    4  1 
12025.554500  83.05260   -3.9007  193.9160   46.5637   134.5817   135.7015   122.0293   147.2388   0    4  1 
12025.688718  83.12775   -3.8209  193.8320   46.6564   134.5381   135.5897   121.9701   147.3389   0    4  1 
12025.822936  83.12775   -3.8209  193.8320   46.6564   134.6572   135.8295   122.0155   147.0738   0    4  1 
12025.957154  83.32800   -3.6923  193.5830   46.8205   134.5626   135.6380   122.1354   147.1573   0    4  1 
12026.091372  83.32800   -3.6923  193.5830   46.8205   134.6940   135.6793   122.1294   147.2291   0    4  1 
12026.225590  83.32800   -3.6923  193.5830   46.8205   134.6325   135.7140   122.1592   147.1186   0    4  1 
12026.359808  83.52180   -3.6739  193.3110   46.8746   134.7420   135.7592   122.1518   147.2983   0    4  1 
12026.494026  83.99340   -3.6517  192.6400   46.9813   134.7451   135.8388   122.0628   147.3272   0    4  1 
12026.628244  83.99340   -3.6517  192.6400   46.9813   134.6965   136.0347   122.2496   147.3423   0    4  1 
12026.762462  83.99340   -3.6517  192.6400   46.9813   134.9021   135.8923   122.2228   147.3297   0    4  1 
12026.896680  84.33480   -3.6566  192.1470   47.0352   134.7638   135.8901   121.9854   147.4995   0    4  1 
12027.030898  84.33480   -3.6566  192.1470   47.0352   134.8948   135.7278   122.2752   147.1457   0    4  1 
12027.165116  84.71565   -3.6667  191.5950   47.0881   134.8387   135.9330   122.1906   147.2801   0    4  1 
12027.299334  84.71565   -3.6667  191.5950   47.0881   134.6594   135.6947   122.2544   147.2795   0    4  1 
12027.433552  84.71565   -3.6667  191.5950   47.0881   134.7641   135.6894   121.9275   147.2805   0    4  1 
12027.567770  85.04520   -3.6762  191.1160   47.1308   134.4830   135.8380   121.9623   147.2192   0    4  1 
12027.701988  85.27110   -3.6842  190.7870   47.1574   134.6790   135.7310   121.9249   147.2887   0    4  1 
12027.836206  85.27110   -3.6842  190.7870   47.1574   134.4395   135.6023   121.8594   147.1266   0    4  1 
12027.970424  85.60080   -3.6957  190.3060   47.1947   134.6287   135.5897   122.0650   147.2414   0    4  1 
12028.104642  85.82760   -3.7035  189.9750   47.2191   134.8212   135.5429   121.9327   147.2073   0    4  1 
12028.238860  85.82760   -3.7035  189.9750   47.2191   134.6059   135.5300   122.0396   147.1408   0    4  1 
12028.373078  86.30610   -3.7173  189.2760   47.2701   134.5101   135.7475   121.8685   147.3587   0    4  1 
12028.507296  86.30610   -3.7173  189.2760   47.2701   134.6173   135.5633   122.0398   146.9945   0    4  0 
12028.641514  86.30610   -3.7173  189.2760   47.2701   134.7110   135.3914   121.9392   146.9852   0    4  0 
12028.775732  86.85960   -3.7254  188.4670   47.3312   134.5711   135.4503   121.7743   147.1438   0    4  0 
12028.909950  86.85960   -3.7254  188.4670   47.3312   134.7525   135.4802   121.9075   147.0307   0    4  0 
12029.044168  86.85960   -3.7254  188.4670   47.3312   134.5134   135.5199   121.8262   146.9219   0    4  0 
12029.178386  87.03270   -3.7742  188.2060   47.3030   134.6088   135.5459   121.8429   147.1544   0    4  0 
12029.312604  87.10935   -3.8183  188.0870   47.2680   134.3859   135.6598   121.5950   147.2869   0    4  0 
12029.446822  87.10935   -3.8183  188.0870   47.2680   134.4856   135.5784   121.9205   147.1414   0    4  0 
12029.581040  87.30330   -3.7901  187.8090   47.3178   134.6148   135.8271   121.6640   147.3353   0    4  0 
12029.715258  87.40305   -3.7740  187.6670   47.3446   134.5419   135.5043   121.9123   147.2869   0    4  0 
12029.849476  87.40305   -3.7740  187.6670   47.3446   134.5238   135.4933   121.8137   147.3045   0    4  0 
12029.983694  87.42000   -3.7690  187.6440   47.3514   134.7886   135.8843   121.9515   147.4128   0    4  0 
12030.117912  87.42000   -3.7690  187.6440   47.3514   134.6789   135.5772   122.1025   147.1965   0    4  0 
12030.252130  87.42660   -3.7593  187.6370   47.3617   134.9253   135.6729   122.0502   147.3444   0    5  1 
12030.386348  87.43290   -3.7490  187.6310   47.3725   134.7408   135.5964   122.0270   147.3081   0    5  1 
12030.520566  87.43290   -3.7490  187.6310   47.3725   134.9525   135.6342   122.0730   147.2579   0    5  1 
12030.654784  87.43755   -3.7482  187.6250   47.3737   134.7674   135.6904   122.0542   147.3660   0    5  1 
12030.789002  87.44325   -3.7430  187.6190   47.3794   134.5426   135.4517   121.9609   147.0786   0    5  1 
12030.923220  87.44325   -3.7430  187.6190   47.3794   134.6076   135.8768   121.8418   147.0419   0    5  1 
12031.057438  87.44670   -3.7403  187.6160   47.3823   134.4589   135.6322   121.9634   147.0428   0    5  1 
12031.191656  87.44970   -3.7383  187.6130   47.3846   134.9037   135.6237   122.0287   147.2094   0    5  1 
12031.325874  87.44970   -3.7383  187.6130   47.3846   134.4248   135.6144   121.9765   147.1932   0    5  1 
12031.460092  87.45315   -3.7375  187.6100   47.3856   134.5756   135.6357   122.0942   147.2811   0    5  1 
12031.594310  87.45405   -3.7382  187.6100   47.3849   134.5683   135.6916   121.8691   147.1781   0    5  1 
12031.728528  87.45405   -3.7382  187.6100   47.3849   134.6397   135.5701   122.0135   147.1655   0    5  1 
12031.862746  87.45405   -3.7382  187.6100   47.3849   134.6479   135.5231   121.9080   147.0996   0    5  1 
12031.996964  87.35385   -3.8374  187.7440   47.2750   134.6148   135.8188   121.9382   147.1327   0    5  1 
12032.131182  87.35385   -3.8374  187.7440   47.2750   134.7412   135.6593   121.9384   147.1808   0    5  1 
12032.265400  87.27645   -3.8873  187.8500   47.2167   134.7088   135.5083   122.1278   146.8788   0    5  1 
12032.399618  87.27645   -3.8873  187.8500   47.2167   134.7979   135.6311   122.0518   147.0367   0    5  1 
12032.533836  87.27645   -3.8873  187.8500   47.2167   134.7721   135.5035   121.9772   146.5637   0    5  1 
12032.668054  86.88585   -3.9447  188.4140   47.1144   134.7616   135.5113   122.0830   147.1914   0    5  1 
12032.802272  86.76045   -3.9648  188.5940   47.0792   134.8413   135.3705   121.9651   146.7123   0    5  1 
12032.936490  86.76045   -3.9648  188.5940   47.0792   134.8930   135.3572   122.0309   146.8067   0    5  1 
12033.070708  86.76045   -3.9648  188.5940   47.0792   134.8892   135.4739   122.0172   146.8005   0    5  1 
12033.204926  86.29875   -3.9882  189.2640   46.9976   134.7311   135.6037   122.0053   147.0873   0    5  1 
12033.339144  86.29875   -3.9882  189.2640   46.9976   135.0157   135.6525   122.1050   147.0440   0    5  1 
12033.473362  86.13435   -3.9964  189.5020   46.9676   134.7218   135.6881   122.0257   147.1698   0    5  1 
12033.607580  85.74975   -4.0146  190.0580   46.8965   134.6638   135.6519   121.9717   147.1636   0    5  1 
12033.741798  85.74975   -4.0146  190.0580   46.8965   134.5682   135.6918   121.7106   147.2278   0    5  1 
12033.876016  85.74975   -4.0146  190.0580   46.8965   134.5519   135.8252   121.8041   147.3327   0    5  1 
12034.010234  85.17750   -4.0346  190.8840   46.7923   134.7718   135.6858   122.0980   147.2631   0    5  1 
12034.144452  85.17750   -4.0346  190.8840   46.7923   134.6525   135.7709   122.0829   147.2907   0    5  1 
12034.278670  84.91710   -4.0414  191.2590   46.7451   134.7404   135.7540   121.9986   147.1281   0    5  1 
12034.412888  84.91710   -4.0414  191.2590   46.7451   134.5090   135.4201   121.8589   147.1945   0    5  1 
12034.547106  84.91710   -4.0414  191.2590   46.7451   134.4955   135.5966   121.9533   147.1384   0    5  1 
12034.681324  84.44970   -4.0568  191.9300   46.6540   134.5321   135.8390   121.9222   147.2696   0    5  1 
12034.815542  84.18840   -4.0613  192.3050   46.6052   134.3650   135.8247   122.0308   147.3424   0    5  1 
12034.949760  84.18840   -4.0613  192.3050   46.6052   134.5908   135.5976   121.9579   147.2060   0    5  0 
12035.083978  83.95200   -4.0684  192.6430   46.5570   134.4089   136.0152   121.9728   147.2075   0    5  0 
12035.218196  83.95200   -4.0684  192.6430   46.5570   134.4160   135.3412   121.6752   146.7914   0    5  0 
12035.352414  83.95200   -4.0684  192.6430   46.5570   134.6686   135.2496   121.7638   146.8083   0    5  0 
12035.486632  83.61495   -4.0735  193.1250   46.4914   134.5366   135.4300   121.7966   146.9358   0    5  0 
12035.620850  83.61495   -4.0735  193.1250   46.4914   134.4710   135.3615   121.7607   146.9274   0    5  0 
12035.755068  83.42430   -4.0152  193.4140   46.5135   134.3441   135.4858   121.6540   147.0506   0    5  0 
12035.889286  83.30775   -3.9427  193.6010   46.5628   134.3998   135.2101   121.6576   147.0052   0    5  0 
12036.023504  83.30775   -3.9427  193.6010   46.5628   134.2417   135.6664   121.7640   147.1434   0    5  0 
12036.157722  83.13510   -3.7581  193.9010   46.7111   134.1734   135.6854   121.4778   147.2306   0    5  0 
12036.291940  83.04585   -3.6639  194.0570   46.7861   134.2448   135.5551   121.6558   147.1755   0    5  0 
12036.426158  83.04585   -3.6639  194.0570   46.7861   134.3897   135.6154   121.8399   147.0881   0    5  0 
12036.560376  83.02665   -3.6173  194.0990   46.8279   134.5014   135.5439   121.7827   147.0051   0    5  0 
12036.694594  83.03085   -3.5976  194.1000   46.8479   134.3493   135.3366   121.8088   146.9187   0    5  0 
12036.828812  83.03085   -3.5976  194.1000   46.8479   134.5274   135.5065   121.9032   147.1288   0    5  0 
12036.963030  83.02680   -3.5837  194.1110   46.8606   134.5425   135.2654   121.8594   146.9886   0    5  0 
12037.097248  83.02695   -3.5709  194.1160   46.8730   134.2791   135.1841   121.7608   146.8506   0    6  1 
12037.231466  83.02695   -3.5709  194.1160   46.8730   134.2998   135.1246   121.7976   146.7425   0    6  1 
12037.365684  83.02605   -3.5677  194.1190   46.8758   134.3249   135.3260   121.8681   146.8753   0    6  1 
12037.499902  83.02665   -3.5595  194.1220   46.8838   134.4470   135.2117   121.7888   147.0097   0    6  1 
12037.634120  83.02665   -3.5595  194.1220   46.8838   134.5510   135.4866   121.8254   146.9956   0    6  1 
12037.768338  83.02500   -3.5574  194.1260   46.8854   134.7861   135.2556   121.9011   146.8603   0    6  1 
12037.902556  83.02545   -3.5554  194.1270   46.8873   134.4714   135.4983   121.8966   146.8052   0    6  1 
12038.036774  83.02545   -3.5554  194.1270   46.8873   134.4760   135.4193   121.7751   147.0000   0    6  1 
12038.170992  83.02620   -3.5538  194.1280   46.8888   134.4763   135.3197   121.8867   147.0677   0    6  1 
12038.305210  83.02800   -3.5529  194.1280   46.8897   134.6614   135.4289   122.1882   147.0167   0    6  1 
12038.439428  83.02800   -3.5529  194.1280   46.8897   134.5536   135.4323   121.8675   146.8512   0    6  1 
12038.573646  83.02800   -3.5529  194.1280   46.8897   134.2734   135.4998   121.7787   147.0687   0    6  1 
12038.707864  83.02950   -3.5525  194.1270   46.8902   134.4840   135.3617   121.8606   146.9932   0    6  1 
12038.842082  83.02950   -3.5525  194.1270   46.8902   134.6153   135.4774   121.7789   146.9255   0    6  1 
12038.976300  83.09925   -3.4808  194.0500   46.9739   134.6106   135.3351   121.9337   146.9440   0    6  1 
12039.110518  83.09925   -3.4808  194.0500   46.9739   134.5856   135.1821   121.6238   146.7743   0    6  1 
12039.244736  83.09925   -3.4808  194.0500   46.9739   134.4821   135.0303   121.7968   146.8855   0    6  1 
12039.378954  83.16015   -3.4145  193.9820   47.0507   134.4587   135.1055   121.7805   146.9608   0    6  1 
12039.513172  83.52330   -3.3029  193.4920   47.2292   134.6961   135.1829   122.0892   146.9689   0    6  1 
12039.647390  83.52330   -3.3029  193.4920   47.2292   134.5755   135.2822   121.9436   146.6152   0    6  1 
12039.781608  83.52330   -3.3029  193.4920   47.2292   134.7896   135.1999   121.8845   146.7808   0    6  1 
12039.915826  83.92305   -3.2798  192.9210   47.3250   134.6398   135.3120   122.0900   146.8617   0    6  1 
12040.050044  83.92305   -3.2798  192.9210   47.3250   134.7310   135.6108   121.9808   147.0769   0    6  1 
12040.184262  83.92305   -3.2798  192.9210   47.3250   134.8317   135.6240   122.0513   147.1520   0    6  1 
12040.318480  84.41175   -3.2844  192.2110   47.4057   134.7031   135.6589   121.9954   147.3916   0    6  1 
12040.452698  84.41175   -3.2844  192.2110   47.4057   134.6288   135.6781   122.0842   147.4753   0    6  1 
12040.586916  84.71355   -3.2947  191.7700   47.4458   134.8433   135.6899   122.3166   147.2123   0    6  1 
12040.721134  84.71355   -3.2947  191.7700   47.4458   134.7624   135.7481   122.0579   147.2229   0    6  1 
12040.855352  84.71355   -3.2947  191.7700   47.4458   134.6716   135.4520   121.9916   146.9233   0    6  1 
12040.989570  84.96555   -3.3029  191.4010   47.4783   134.5186   135.3566   121.9454   146.8442   0    6  1 
12041.123788  84.96555   -3.3029  191.4010   47.4783   134.7570   135.5544   121.8755   146.6517   0    6  1 
12041.258006  85.26465   -3.3111  190.9630   47.5169   134.3134   135.3546   121.5268   147.0183   0    6  1 
12041.392224  85.51590   -3.3196  190.5940   47.5463   134.3763   135.2608   121.4190   146.9138   0    6  1 
12041.526442  85.51590   -3.3196  190.5940   47.5463   134.3450   135.1095   121.7086   146.6882   0    6  1 
12041.660660  85.74165   -3.3288  190.2620   47.5701   134.5036   135.3552   121.5197   146.7106   0    6  1 
12041.794878  86.29185   -3.3439  189.4530   47.6311   134.3287   135.2122   121.5449   146.9935   0    6  0 
12041.929096  86.29185   -3.3439  189.4530   47.6311   134.4586   135.2927   121.5806   146.8456   0    6  0 
12042.063314  86.51670   -3.3490  189.1220   47.6554   134.3133   135.4509   121.6400   146.8074   0    6  0 
12042.197532  86.51670   -3.3490  189.1220   47.6554   134.1929   135.3820   121.6695   147.0482   0    6  0 
12042.331750  86.51670   -3.3490  189.1220   47.6554   134.3446   135.1896   121.4476   146.8193   0    6  0 
12042.465968  86.76675   -3.3515  188.7540   47.6844   134.0934   135.2551   121.4325   146.7136   0    6  0 
12042.600186  86.89140   -3.3782  188.5660   47.6731   134.4681   135.3607   121.5408   146.9272   0    6  0 
12042.734404  86.89140   -3.3782  188.5660   47.6731   134.2843   135.2368   121.4691   146.9596   0    6  0 
12042.868622  87.16800   -3.4050  188.1550   47.6790   134.2811   134.9597   121.5901   146.6629   0    6  0 
12043.002840  87.31125   -3.3854  187.9480   47.7148   134.2721   135.2218   121.6105   146.7557   0    6  0 
12043.137058  87.31125   -3.3854  187.9480   47.7148   134.1861   135.2338   121.5630   146.8001   0    6  0 
12043.271276  87.38400   -3.3936  187.8400   47.7147   134.3888   135.1882   121.4486   146.6748   0    6  0 
12043.405494  87.43215   -3.3875  187.7710   47.7260   134.3378   134.9986   121.7627   146.7840   0    6  0 
12043.539712  87.43215   -3.3875  187.7710   47.7260   134.1523   135.0610   121.5563   146.6730   0    6  0 
12043.673930  87.42960   -3.3851  187.7760   47.7281   134.2429   135.0187   121.6515   146.8263   0    7  1 
12043.808148  87.43620   -3.3805  187.7690   47.7332   134.3622   135.0627   121.5493   146.5219   0    7  1 
12043.942366  87.43620   -3.3805  187.7690   47.7332   134.3459   135.1721   121.4765   146.3974   0    7  1 
12044.076584  87.44040   -3.3745  187.7650   47.7396   134.2316   135.2457   121.5289   146.9229   0    7  1 
12044.210802  87.44100   -3.3749  187.7650   47.7392   134.2820   135.1702   121.4322   146.7454   0    7  1 
12044.345020  87.44100   -3.3749  187.7650   47.7392   134.3732   135.2405   121.5116   147.0297   0    7  1 
12044.479238  87.44790   -3.3715  187.7570   47.7432   134.4047   135.1622   121.5644   146.6177   0    7  1 
12044.613456  87.44940   -3.3713  187.7560   47.7435   134.3988   135.2212   121.7322   146.6942   0    7  1 
12044.747674  87.44940   -3.3713  187.7560   47.7435   134.4040   135.3040   121.6789   146.5716   0    7  1 
12044.881892  87.45240   -3.3709  187.7540   47.7440   134.2250   135.1158   121.6932   146.7985   0    7  1 
12045.016110  87.45600   -3.3720  187.7500   47.7432   134.4414   135.2340   121.5899   146.6983   0    7  1 
12045.150328  87.45600   -3.3720  187.7500   47.7432   134.2119   135.2503   121.4955   146.9810   0    7  1 
12045.284546  87.45600   -3.3720  187.7500   47.7432   134.1459   135.4522   121.6267   146.8185   0    7  1 
12045.418764  87.38520   -3.4467  187.8450   47.6608   134.5396   135.1232   121.7476   146.9642   0    7  1 
12045.552982  87.38520   -3.4467  187.8450   47.6608   134.1075   135.2518   121.6971   146.7542   0    7  1 
12045.687200  87.32520   -3.4952  187.9260   47.6058   134.4977   135.2383   121.6805   146.7308   0    7  1 
12045.821418  87.32520   -3.4952  187.9260   47.6058   134.5038   135.3250   121.6298   146.9922   0    7  1 
12045.955636  87.32520   -3.4952  187.9260   47.6058   134.2939   135.6047   121.6942   146.8732   0    7  1 
12046.089854  87.07560   -3.5602  188.2850   47.5123   134.4973   135.5127   121.6546   146.9033   0    7  1 
12046.224072  86.83350   -3.5955  188.6360   47.4481   134.6237   135.5258   121.9519   147.0759   0    7  1 
12046.358290  86.83350   -3.5955  188.6360   47.4481   134.4709   135.3496   121.7887   147.1048   0    7  1 
12046.492508  86.83350   -3.5955  188.6360   47.4481   134.3164   135.4035   121.7879   146.9991   0    7  1 
12046.626726  86.30880   -3.6314  189.4010   47.3454   134.3631   135.4029   121.6740   147.1040   0    7  1 
12046.760944  86.30880   -3.6314  189.4010   47.3454   134.5237   135.4109   121.7310   146.9801   0    7  1 
12046.895162  86.14680   -3.6408  189.6370   47.3143   134.7117   135.5273   121.7521   146.9733   0    7  1 
12047.029380  86.14680   -3.6408  189.6370   47.3143   134.6281   135.4479   121.6383   147.0223   0    7  1 
12047.163598  86.14680   -3.6408  189.6370   47.3143   134.6584   135.4768   121.8579   147.1635   0    7  1 
12047.297816  85.50765   -3.6623  190.5680   47.2019   134.7517   135.5865   121.7861   146.9664   0    7  1 
12047.432034  85.35090   -3.6712  190.7950   47.1696   134.6354   135.5637   121.9198   147.2799   0    7  1 
12047.566252  85.35090   -3.6712  190.7950   47.1696   134.7400   135.5263   121.8066   147.0764   0    7  1 
12047.700470  85.35090   -3.6712  190.7950   47.1696   134.7836   135.6544   122.0269   147.0820   0    7  1 
12047.834688  84.70830   -3.6911  191.7260   47.0484   134.7521   135.6431   122.0635   147.3927   0    7  1 
12047.968906  84.70830   -3.6911  191.7260   47.0484   134.6104   135.6192   121.7757   147.1056   0    7  1 
12048.103124  84.70830   -3.6911  191.7260   47.0484   134.5093   135.5551   122.0355   146.9260   0    7  1 
12048.237342  84.55155   -3.6983  191.9520   47.0153   134.6909   135.3169   121.8141   147.2600   0    7  1 
12048.371560  84.55155   -3.6983  191.9520   47.0153   134.5446   135.1535   121.8885   146.8895   0    7  1 
12048.505778  84.05670   -3.7129  192.6650   46.9157   134.4161   135.2570   121.8464   147.0729   0    7  0 
12048.639996  83.71950   -3.7202  193.1500   46.8478   134.2798   135.3010   121.7200   146.9440   0    7  0 
12048.774214  83.71950   -3.7202  193.1500   46.8478   134.5754   135.2491   121.6473   147.1700   0    7  0 
12048.908432  83.71950   -3.7202  193.1500   46.8478   134.4452   135.3885   121.7718   146.8564   0    7  0 
12049.042650  83.56515   -3.7225  193.3720   46.8170   134.3672   135.3961   121.7621   147.0809   0    7  0 
12049.176868  83.56515   -3.7225  193.3720   46.8170   134.4407   135.3888   121.6381   147.2092   0    7  0 
12049.311086  83.33895   -3.6404  193.7210   46.8550   134.3777   135.2155   121.7963   147.1917   0    7  0 
12049.445304  83.19405   -3.4863  193.9740   46.9784   134.2295   135.4596   121.5874   146.9273   0    7  0 
12049.579522  83.19405   -3.4863  193.9740   46.9784   134.4665   135.2633   121.7317   146.7944   0    7  0 
12049.713740  83.06895   -3.3527  194.1940   47.0850   134.3853   135.0596   121.6918   147.0174   0    7  0 
12049.847958  83.03115   -3.2863  194.2690   47.1425   134.1053   135.1772   121.4213   146.8444   0    7  0 
12049.982176  83.03115   -3.2863  194.2690   47.1425   134.3151   134.9981   121.6980   146.8982   0    7  0 
12050.116394  83.02470   -3.2554  194.2880   47.1715   134.3876   135.2771   121.5741   147.0692   0    7  0 
12050.250612  83.03190   -3.2321  194.2860   47.1956   134.1611   135.0152   121.3631   146.9916   0    7  0 
12050.384830  83.03190   -3.2321  194.2860   47.1956   134.1196   135.4226   121.3656   146.9473   0    7  0 
12050.519048  83.02530   -3.2151  194.3020   47.2107   134.1582   135.3113   121.4984   147.0794   0    7  0 
12050.653266  83.02545   -3.2082  194.3050   47.2174   134.2049   135.2444   121.5329   146.9142   0    8  1 
12050.787484  83.02545   -3.2082  194.3050   47.2174   134.4042   135.3026   121.5754   146.9644   0    8  1 
12050.921702  83.02425   -3.1975  194.3110   47.2275   134.2454   135.3715   121.3731   147.0025   0    8  1 
12051.055920  83.02470   -3.1943  194.3120   47.2306   134.0891   135.1756   121.4875   146.8176   0    8  1 
12051.190138  83.02470   -3.1943  194.3120   47.2306   134.2897   135.1002   121.5504   146.8339   0    8  1 
12051.324356  83.02455   -3.1902  194.3150   47.2344   134.3047   135.2660   121.6540   146.9214   0    8  1 
12051.458574  83.02515   -3.1890  194.3160   47.2354   134.2730   135.5104   121.5680   147.0441   0    8  1 
12051.592792  83.02515   -3.1890  194.3160   47.2354   134.2618   135.3662   121.4370   147.1121   0    8  1 
12051.727010  83.02650   -3.1866  194.3170   47.2378   134.1928   135.2329   121.5262   147.0651   0    8  1 
12051.861228  83.02860   -3.1841  194.3160   47.2404   134.1991   135.3995   121.5485   146.9340   0    8  1 
12051.995446  83.02860   -3.1841  194.3160   47.2404   134.3442   135.3418   121.4444   146.7988   0    8  1 
12052.129664  83.02860   -3.1841  194.3160   47.2404   134.4240   135.3780   121.6346   146.8882   0    8  1 
12052.263882  83.05350   -3.1651  194.2880   47.2637   134.3221   135.2877   121.6562   146.8051   0    8  1 
12052.398100  83.05350   -3.1651  194.2880   47.2637   134.1538   135.2506   121.5980   146.5846   0    8  1 
12052.532318  83.05350   -3.1651  194.2880   47.2637   134.3497   135.1596   121.5866   146.7927   0    8  1 
12052.666536  83.13015   -3.0868  194.2010   47.3555   134.2615   134.9418   121.4175   146.8356   0    8  1 
12052.800754  83.13015   -3.0868  194.2010   47.3555   134.1503   134.9505   121.4373   146.6774   0    8  1 
12052.934972  83.33550   -2.9481  193.9450   47.5315   134.3258   135.4061   121.4835   146.9835   0    8  1 
12053.069190  83.33550   -2.9481  193.9450   47.5315   134.7657   135.1740   121.5087   146.9600   0    8  1 
12053.203408  83.33550   -2.9481  193.9450   47.5315   134.4749   135.4611   122.0562   146.9500   0    8  1 
12053.337626  83.53020   -2.9239  193.6700   47.5923   134.3973   135.3487   121.9027   146.9797   0    8  1 
12053.471844  84.00090   -2.9026  192.9910   47.7001   134.6529   135.4997   121.8952   147.2193   0    8  1 
12053.606062  84.00090   -2.9026  192.9910   47.7001   134.7955   135.4695   122.1192   147.2696   0    8  1 
12053.740280  84.00090   -2.9026  192.9910   47.7001   134.8774   135.3812   121.9859   147.3028   0    8  1 
12053.874498  84.25980   -2.9064  192.6120   47.7423   135.0820   135.5957   122.0805   147.6394   0    8  1 
12054.008716  84.25980   -2.9064  192.6120   47.7423   135.0664   135.5349   122.1401   147.3725   0    8  1 
12054.142934  84.71235   -2.9145  191.9480   47.8115   135.1315   135.7476   122.1551   147.5700   0    8  1 
12054.277152  84.71235   -2.9145  191.9480   47.8115   135.0039   135.7910   122.1457   147.7967   0    8  1 
12054.411370  84.71235   -2.9145  191.9480   47.8115   135.2413   135.8844   122.0863   147.5440   0    8  1 
12054.545588  85.04085   -2.9237  191.4640   47.8559   134.6117   135.4202   121.8589   147.1212   0    8  1 
12054.679806  85.26375   -2.9304  191.1350   47.8844   134.7858   135.2683   121.7483   147.0348   0    8  1 
12054.814024  85.26375   -2.9304  191.1350   47.8844   134.4696   135.1869   121.8541   147.1650   0    8  1 
12054.948242  85.51095   -2.9406  190.7690   47.9121   134.4722   135.1705   121.4080   146.5738   0    8  1 
12055.082460  85.66035   -2.9456  190.5480   47.9294   134.6773   134.9313   121.4303   146.8800   0    8  1 
12055.216678  85.66035   -2.9456  190.5480   47.9294   134.3039   134.9804   121.4567   146.7816   0    8  0 
12055.350896  86.28300   -2.9628  189.6260   48.0003   134.4044   135.1355   121.4365   146.7327   0    8  0 
12055.485114  86.28300   -2.9628  189.6260   48.0003   134.3082   134.9667   121.6149   146.6179   0    8  0 
12055.619332  86.28300   -2.9628  189.6260   48.0003   134.3064   135.0208   121.3187   146.5579   0    8  0 
12055.753550  86.74620   -2.9773  188.9380   48.0463   134.2946   134.9652   121.6033   146.5574   0    8  0 
12055.887768  86.84940   -3.0231  188.7770   48.0137   134.1312   134.9237   121.4956   146.2077   0    8  0 
12056.021986  86.84940   -3.0231  188.7770   48.0137   134.1582   134.6336   121.4644   146.4269   0    8  0 
12056.156204  86.95680   -3.0457  188.6140   48.0044   134.4285   135.1347   121.6175   146.7353   0    8  0 
12056.290422  87.08865   -3.0289  188.4220   48.0369   134.3391   135.2585   121.4919   146.6884   0    8  0 
12056.424640  87.08865   -3.0289  188.4220   48.0369   134.5554   134.9207   121.6869   146.2378   0    8  0 
12056.558858  87.29460   -3.0130  188.1200   48.0767   134.4434   134.8565   121.4550   146.7009   0    8  0 
12056.693076  87.37185   -3.0249  188.0040   48.0736   134.3428   134.9446   121.5080   146.4290   0    8  0 
12056.827294  87.37185   -3.0249  188.0040   48.0736   134.3914   134.7770   121.5574   146.4385   0    8  0 
12056.961512  87.42960   -3.0138  187.9210   48.0911   134.4803   134.9554   121.4273   146.4935   0    8  0 
12057.095730  87.42570   -3.0110  187.9290   48.0933   134.3428   134.9503   121.5165   146.4963   0    9  1 
12057.229948  87.42570   -3.0110  187.9290   48.0933   134.3900   134.8635   121.7131   146.4725   0    9  1 
12057.364166  87.43125   -3.0131  187.9210   48.0918   134.4477   135.0783   121.5385   146.7644   0    9  1 
12057.498384  87.43785   -3.0058  187.9140   48.0997   134.6255   135.0285   121.6649   146.6596   0    9  1 
12057.632602  87.43785   -3.0058  187.9140   48.0997   134.3625   134.8286   121.5526   146.6393   0    9  1 
12057.766820  87.44220   -3.0064  187.9090   48.0995   134.3972   134.9790   121.4662   146.6131   0    9  1 
12057.901038  87.44460   -3.0044  187.9070   48.1016   134.3400   135.0211   121.5686   146.3956   0    9  1 
12058.035256  87.44460   -3.0044  187.9070   48.1016   134.4561   134.8508   121.5504   146.2729   0    9  1 
12058.169474  87.44790   -3.0057  187.9030   48.1006   134.2098   134.9136   121.3670   146.4568   0    9  1 
12058.303692  87.45105   -3.0034  187.9010   48.1031   134.2530   134.8157   121.6137   146.2579   0    9  1 
12058.437910  87.45105   -3.0034  187.9010   48.1031   134.1376   134.7778   121.4493   146.4369   0    9  1 
12058.572128  87.45240   -3.0027  187.9010   48.1038   134.1588   134.8062   121.4338   146.1238   0    9  1 
12058.706346  87.45240   -3.0027  187.9010   48.1038   134.2324   134.6294   121.4484   146.3329   0    9  1 
12058.840564  87.41160   -3.0487  187.9560   48.0533   134.3987   134.7124   121.2566   146.1880   0    9  1 
12058.974782  87.41160   -3.0487  187.9560   48.0533   134.2555   134.9042   121.2936   146.2128   0    9  1 
12059.109000  87.41160   -3.0487  187.9560   48.0533   134.2464   134.8871   121.3503   146.3755   0    9  1 
12059.243218  87.20700   -3.1892  188.2380   47.8899   134.2433   134.8280   121.4178   146.2093   0    9  1 
12059.377436  87.20700   -3.1892  188.2380   47.8899   134.3068   135.0363   121.3771   146.8532   0    9  1 
12059.511654  87.07800   -3.2079  188.4270   47.8559   134.0715   134.9976   121.2403   146.5875   0    9  1 
12059.645872  86.89830   -3.2306  188.6900   47.8115   134.3108   134.7983   121.4658   146.4187   0    9  1 
12059.780090  86.89830   -3.2306  188.6900   47.8115   134.1077   134.9200   121.3280   146.4497   0    9  1 
12059.914308  86.89830   -3.2306  188.6900   47.8115   134.2070   134.8114   121.3704   146.5230   0    9  1 
12060.048526  86.49675   -3.2698  189.2780   47.7215   134.3792   134.8102   121.4605   146.4733   0    9  1 
12060.182744  86.49675   -3.2698  189.2780   47.7215   134.3655   134.9155   121.4296   146.5908   0    9  1 
12060.316962  86.23080   -3.2851  189.6680   47.6707   134.4478   134.8647   121.3675   146.5920   0    9  1 
12060.451180  86.23080   -3.2851  189.6680   47.6707   134.3543   134.8985   121.3371   146.5372   0    9  1 
12060.585398  86.23080   -3.2851  189.6680   47.6707   134.5135   135.1965   121.6118   146.8121   0    9  1 
12060.719616  85.59090   -3.3147  190.6050   47.5499   134.5428   135.0148   121.8914   146.7127   0    9  1 
12060.853834  85.51440   -3.3167  190.7170   47.5365   134.7853   135.3680   121.8059   146.8944   0    9  1 
12060.988052  85.51440   -3.3167  190.7170   47.5365   134.8594   135.1082   121.9941   147.0035   0    9  1 
12061.122270  85.51440   -3.3167  190.7170   47.5365   134.7166   135.3217   121.8494   147.1800   0    9  1 
12061.256488  84.94980   -3.3405  191.5400   47.4247   134.6094   135.1499   121.9145   146.8392   0    9  1 
12061.390706  84.94980   -3.3405  191.5400   47.4247   134.4848   135.3690   121.7093   147.0317   0    9  1 
12061.524924  84.94980   -3.3405  191.5400   47.4247   134.6048   135.1046   121.7733   147.0588   0    9  1 
12061.659142  84.64215   -3.3531  191.9870   47.3616   134.4883   135.1121   121.6031   146.8234   0    9  1 
12061.793360  84.64215   -3.3531  191.9870   47.3616   134.4602   134.9108   121.5883   146.7930   0    9  0 
12061.927578  84.22800   -3.3664  192.5880   47.2773   134.1874   134.9669   121.5932   146.4067   0    9  0 
12062.061796  84.22800   -3.3664  192.5880   47.2773   134.0005   134.6753   121.4083   146.3023   0    9  0 
12062.196014  84.22800   -3.3664  192.5880   47.2773   134.2788   134.7018   121.3894   146.3154   0    9  0 
12062.330232  83.91765   -3.3767  193.0370   47.2117   134.1042   134.7715   121.4057   146.3966   0    9  0 
12062.464450  83.66160   -3.3788  193.4080   47.1624   134.2309   134.4973   121.4545   146.4260   0    9  0 
12062.598668  83.66160   -3.3788  193.4080   47.1624   134.4625   134.7647   121.5666   146.4112   0    9  0 
12062.732886  83.38770   -3.2875  193.8310   47.2002   134.4142   134.8071   121.4789   146.3034   0    9  0 
12062.867104  83.22405   -3.1336  194.1130   47.3195   134.0575   134.6903   121.5925   146.3148   0    9  0 
12063.001322  83.22405   -3.1336  194.1130   47.3195   134.3413   134.7005   121.6313   146.5545   0    9  0 
12063.135540  83.15235   -3.0533  194.2410   47.3842   134.3190   134.7123   121.5850   146.5247   0    9  0 
12063.269758  83.05140   -2.9450  194.4210   47.4702   134.3474   134.7896   121.5774   146.3294   0    9  0 
12063.403976  83.05140   -2.9450  194.4210   47.4702   134.3308   134.4479   121.5466   146.2730   0    9  0 
12063.538194  83.02755   -2.8811  194.4760   47.5279   134.2976   134.6102   121.5403   146.4699   0    9  0 
12063.672412  83.02905   -2.8609  194.4810   47.5478   134.2066   134.6135   121.3609   146.3851   0    9  0 
12063.806630  83.02905   -2.8609  194.4810   47.5478   134.1678   134.7412   121.3048   146.5592   0    9  0 
12063.940848  83.02515   -2.8535  194.4900   47.5542   134.4087   134.7055   121.2690   146.5089   0    9  0 
12064.075066  83.02470   -2.8451  194.4940   47.5622   134.0905   134.8421   121.3186   146.5870   0   10  1 
12064.209284  83.02470   -2.8451  194.4940   47.5622   134.2585   134.6863   121.2725   146.6692   0   10  1 
12064.343502  83.02470   -2.8336  194.4990   47.5732   133.9127   134.8595   121.3629   146.6956   0   10  1 
12064.477720  83.02395   -2.8250  194.5040   47.5813   133.8786   134.7758   121.1819   146.5393   0   10  1 
12064.611938  83.02395   -2.8250  194.5040   47.5813   133.9093   134.7761   121.2459   146.3533   0   10  1 
12064.746156  83.02320   -2.8225  194.5070   47.5835   134.1681   134.6864   121.1754   146.4509   0   10  1 
12064.880374  83.02395   -2.8198  194.5080   47.5861   134.2376   134.8928   121.2289   146.4854   0   10  1 
12065.014592  83.02395   -2.8198  194.5080   47.5861   134.0815   134.7989   121.1897   146.3582   0   10  1 
12065.148810  83.02545   -2.8168  194.5090   47.5890   134.0434   134.8182   121.2086   146.5706   0   10  1 
12065.283028  83.02665   -2.8158  194.5090   47.5900   133.6561   134.7830   121.3518   146.5171   0   10  1 
12065.417246  83.02665   -2.8158  194.5090   47.5900   134.2211   134.9119   121.2813   146.4554   0   10  1 
12065.551464  83.02800   -2.8163  194.5080   47.5897   134.1512   134.8982   121.2595   146.3611   0   10  1 
12065.685682  83.05275   -2.7933  194.4800   47.6170   134.1195   134.7680   121.3569   146.3424   0   10  1 
12065.819900  83.05275   -2.7933  194.4800   47.6170   133.9700   134.9030   121.3374   146.4743   0   10  1 
12065.954118  83.05275   -2.7933  194.4800   47.6170   134.1106   134.8249   121.2852   146.5016   0   10  1 
12066.088336  83.33430   -2.5807  194.1350   47.8810   134.1576   134.7124   121.3980   146.6498   0   10  1 
12066.222554  83.33430   -2.5807  194.1350   47.8810   134.1206   134.7357   121.3999   146.5270   0   10  1 
12066.356772  83.42985   -2.5628  194.0010   47.9171   134.2119   134.9852   121.4637   146.6643   0   10  1 
12066.490990  83.42985   -2.5628  194.0010   47.9171   134.2294   134.9283   121.4981   146.6005   0   10  1 
12066.625208  83.42985   -2.5628  194.0010   47.9171   134.2916   135.0613   121.5773   146.7028   0   10  1 
12066.759426  83.93580   -2.5303  193.2700   48.0444   134.3094   135.1549   121.5926   146.8872   0   10  1 
12066.893644  84.08730   -2.5284  193.0480   48.0738   134.3966   134.9250   121.7607   146.7093   0   10  1 
12067.027862  84.08730   -2.5284  193.0480   48.0738   134.5784   135.2495   121.7246   147.0315   0   10  1 
12067.162080  84.08730   -2.5284  193.0480   48.0738   134.6623   135.3827   121.8350   147.2387   0   10  1 
12067.296298  84.56895   -2.5372  192.3370   48.1500   134.9835   135.2861   122.0578   147.2031   0   10  1 
12067.430516  84.56895   -2.5372  192.3370   48.1500   135.1696   135.8971   122.3509   147.8385   0   10  1 
12067.564734  84.79275   -2.5444  192.0050   48.1807   135.4009   135.9574   122.4647   147.7730   0   10  1 
12067.698952  84.79275   -2.5444  192.0050   48.1807   135.4224   136.2615   122.4334   147.9547   0   10  1 
12067.833170  84.79275   -2.5444  192.0050   48.1807   135.2470   136.1169   122.3908   147.8345   0   10  1 
12067.967388  85.33785   -2.5617  191.1950   48.2516   135.0879   135.6611   122.1121   147.3755   0   10  1 
12068.101606  85.48665   -2.5693  190.9730   48.2671   134.7065   135.5552   121.9044   147.2672   0   10  1 
12068.235824  85.48665   -2.5693  190.9730   48.2671   133.9899   135.0946   121.2124   146.7477   0   10  1 
12068.370042  85.48665   -2.5693  190.9730   48.2671   134.1714   135.1540   121.3139   146.9367   0   10  1 
12068.504260  85.80600   -2.5799  190.4970   48.3045   134.1118   135.1817   121.2567   146.9082   0   10  1 
12068.638478  85.80600   -2.5799  190.4970   48.3045   134.1232   135.2480   121.2726   146.8139   0   10  1 
12068.772696  86.27565   -2.5987  189.7950   48.3526   134.0951   135.0521   121.1201   146.7180   0   10  1 
12068.906914  86.27565   -2.5987  189.7950   48.3526   133.9762   135.0616   121.1297   146.6675   0   10  0 
12069.041132  86.27565   -2.5987  189.7950   48.3526   133.9723   134.9818   121.0936   146.7324   0   10  0 
12069.175350  86.71830   -2.6132  189.1330   48.3970   134.2784   135.0170   121.2527   146.6317   0   10  0 
12069.309568  86.71830   -2.6132  189.1330   48.3970   134.0202   134.6951   121.1858   146.5770   0   10  0 
12069.443786  86.71830   -2.6132  189.1330   48.3970   134.2620   134.7185   121.4085   146.4172   0   10  0 
12069.578004  86.98380   -2.6677  188.7270   48.3762   134.2320   134.7500   121.2669   146.4754   0   10  0 
12069.712222  87.08745   -2.7164  188.5640   48.3404   134.0997   134.7617   121.2895   146.5440   0   10  0 
12069.846440  87.08745   -2.7164  188.5640   48.3404   134.1301   134.7915   121.2015   146.5636   0   10  0 
12069.980658  87.26655   -2.6755  188.3050   48.4023   134.2241   134.9168   121.0354   146.7851   0   10  0 
12070.114876  87.37455   -2.6603  188.1470   48.4300   134.1423   134.8481   121.2918   146.5032   0   10  0 
12070.249094  87.37455   -2.6603  188.1470   48.4300   134.1365   134.9263   121.1216   146.5117   0   10  0 
12070.383312  87.40560   -2.6674  188.1000   48.4264   133.8891   135.0303   121.2588   146.6200   0   10  0 
12070.517530  87.42330   -2.6564  188.0770   48.4392   134.1394   134.9353   121.1493   146.8102   0   10  0 
12070.651748  87.42330   -2.6564  188.0770   48.4392   134.0891   134.9059   121.0711   146.5867   0   10  0 
12070.785966  87.42930   -2.6475  188.0710   48.4487   134.0998   135.2991   121.1546   146.6888   0   11  1 
12070.920184  87.43740   -2.6418  188.0610   48.4552   133.9176   135.0179   121.2373   146.6375   0   11  1 
12071.054402  87.43740   -2.6418  188.0610   48.4552   133.9880   135.0260   121.3168   146.7084   0   11  1 
12071.188620  87.44070   -2.6372  188.0580   48.4600   133.8285   135.0188   121.2188   146.6538   0   11  1 
12071.322838  87.44490   -2.6369  188.0530   48.4607   134.2634   134.9156   121.0622   146.6530   0   11  1 
12071.457056  87.44490   -2.6369  188.0530   48.4607   133.9478   134.7220   121.4448   146.6140   0   11  1 
12071.591274  87.44730   -2.6337  188.0510   48.4641   134.1356   134.8798   121.2689   146.7258   0   11  1 
12071.725492  87.45030   -2.6349  188.0480   48.4631   134.0641   134.8582   121.2570   146.4096   0   11  1 
12071.859710  87.45030   -2.6349  188.0480   48.4631   134.0816   134.7624   120.9309   146.4264   0   11  1 
12071.993928  87.45390   -2.6341  188.0450   48.4641   134.1546   134.9508   121.1357   146.5722   0   11  1 
12072.128146  87.45510   -2.6345  188.0440   48.4638   134.0176   134.8973   121.1295   146.4649   0   11  1 
12072.262364  87.45510   -2.6345  188.0440   48.4638   133.9759   134.7759   121.1594   146.5856   0   11  1 
12072.396582  87.45510   -2.6345  188.0440   48.4638   134.0263   134.7710   121.2218   146.4777   0   11  1 
12072.530800  87.35745   -2.7342  188.1760   48.3532   134.0630   134.9074   121.3295   146.5208   0   11  1 
12072.665018  87.35745   -2.7342  188.1760   48.3532   134.1418   134.8195   121.5410   146.5639   0   11  1 
12072.799236  87.24630   -2.7987  188.3320   48.2760   134.4243   134.7287   121.2701   146.4074   0   11  1 
12072.933454  87.24630   -2.7987  188.3320   48.2760   134.1219   135.0129   121.4240   146.6099   0   11  1 
12073.067672  87.24630   -2.7987  188.3320   48.2760   134.0051   134.7818   121.4517   146.6482   0   11  1 
12073.201890  86.83215   -2.8572  188.9420   48.1670   134.3250   135.0217   121.3070   146.7025   0   11  1 
12073.336108  86.76765   -2.8648  189.0370   48.1512   134.3394   135.0484   121.5106   146.6160   0   11  1 
12073.470326  86.76765   -2.8648  189.0370   48.1512   134.3854   135.0901   121.6200   146.6598   0   11  1 
12073.604544  86.48385   -2.8791  189.4580   48.0999   134.3598   135.2340   121.5506   147.1271   0   11  1 
12073.738762  86.48385   -2.8791  189.4580   48.0999   134.4506   135.3106   121.5288   146.8640   0   11  1 
12073.872980  86.48385   -2.8791  189.4580   48.0999   134.3354   135.2125   121.3468   146.9168   0   11  1 
12074.007198  85.84095   -2.9136  190.4070   47.9756   134.5431   135.4683   121.5721   147.2522   0   11  1 
12074.141416  85.84095   -2.9136  190.4070   47.9756   134.5601   135.5514   121.6160   147.1854   0   11  1 
12074.275634  85.84095   -2.9136  190.4070   47.9756   135.0822   135.8722   122.0463   147.6322   0   11  1 
12074.409852  85.84095   -2.9136  190.4070   47.9756   134.7442   135.8028   121.8778   147.4640   0   11  1 
12074.544070  85.20390   -2.9384  191.3450   47.8537   135.0143   135.7600   121.9901   147.4890   0   11  1 
12074.678288  85.20390   -2.9384  191.3450   47.8537   134.7869   135.6094   121.8636   147.5589   0   11  1 
12074.812506  84.95040   -2.9468  191.7170   47.8044   134.6987   135.6036   121.8043   147.4621   0   11  1 
12074.946724  84.95040   -2.9468  191.7170   47.8044   134.6470   135.4709   121.7253   147.3954   0   11  1 
12075.080942  84.95040   -2.9468  191.7170   47.8044   134.2415   135.2081   121.7339   147.0982   0   11  1 
12075.215160  84.64170   -2.9592  192.1690   47.7406   134.5719   135.4285   121.6666   147.0771   0   11  1 
12075.349378  84.23280   -2.9700  192.7670   47.6587   134.4024   135.3445   121.5070   147.0374   0   11  0 
12075.483596  84.23280   -2.9700  192.7670   47.6587   134.4333   135.0356   121.4741   146.8164   0   11  0 
12075.617814  83.92545   -2.9796  193.2150   47.5936   134.2380   135.1373   121.5807   146.7749   0   11  0 
12075.752032  83.92545   -2.9796  193.2150   47.5936   134.1128   134.9853   121.2704   147.0065   0   11  0 
12075.886250  83.92545   -2.9796  193.2150   47.5936   134.2867   134.6444   121.4166   146.6219   0   11  0 
12076.020468  83.66805   -2.9844  193.5900   47.5408   134.2441   134.7625   121.3159   146.7585   0   11  0 
12076.154686  83.40465   -2.9316  193.9900   47.5421   134.3512   134.5851   121.2996   146.5743   0   11  0 
12076.288904  83.40465   -2.9316  193.9900   47.5421   134.1639   134.5411   121.1605   146.5590   0   11  0 
12076.423122  83.22930   -2.7959  194.2860   47.6408   134.0214   134.7447   121.3377   146.4865   0   11  0 
12076.557340  83.15775   -2.7018  194.4190   47.7188   134.0626   134.7588   121.3127   146.4423   0   11  0 
12076.691558  83.15775   -2.7018  194.4190   47.7188   134.0380   134.6894   121.1868   146.7380   0   11  0 
12076.825776  83.05605   -2.5916  194.6020   47.8062   134.1112   134.8827   121.2799   146.7616   0   11  0 
12076.959994  83.02155   -2.5305  194.6720   47.8590   133.9741   134.6972   121.1566   146.5348   0   11  0 
12077.094212  83.02155   -2.5305  194.6720   47.8590   134.0322   134.9868   121.2503   146.6266   0   11  0 
12077.228430  83.03190   -2.4924  194.6700   47.8982   134.0097   134.8183   121.3160   146.4995   0   11  0 
12077.362648  83.02410   -2.4845  194.6850   47.9042   134.1814   134.7745   121.2079   146.6884   0   11  0 
12077.496866  83.02410   -2.4845  194.6850   47.9042   133.8992   134.8618   121.0066   146.6905   0   11  0 
12077.631084  83.02455   -2.4779  194.6870   47.9107   134.1209   134.7128   121.2298   146.8900   0   12  1 
12077.765302  83.02560   -2.4649  194.6910   47.9234   133.9758   135.3080   121.2628   146.8002   0   12  1 
12077.899520  83.02560   -2.4649  194.6910   47.9234   134.1571   134.7241   121.1845   146.4612   0   12  1 
12078.033738  83.02515   -2.4587  194.6950   47.9292   134.2052   135.0315   121.0104   146.7979   0   12  1 
12078.167956  83.02500   -2.4536  194.6980   47.9340   134.1685   134.8643   121.2837   146.5027   0   12  1 
12078.302174  83.02500   -2.4536  194.6980   47.9340   134.0885   135.0379   121.2653   146.8336   0   12  1 
12078.436392  83.02635   -2.4510  194.6980   47.9366   133.9776   134.9720   121.2212   146.7944   0   12  1 
12078.570610  83.02605   -2.4512  194.6990   47.9363   134.1234   134.9780   121.1874   146.6369   0   12  1 
12078.704828  83.02605   -2.4512  194.6990   47.9363   134.2063   134.8884   121.3421   146.6736   0   12  1 
12078.839046  83.02815   -2.4480  194.7000   47.9394   134.1439   134.8381   121.3780   146.6745   0   12  1 
12078.973264  83.02890   -2.4482  194.7000   47.9392   134.2496   134.8026   121.3099   146.6009   0   12  1 
12079.107482  83.02890   -2.4482  194.7000   47.9392   134.1675   134.9409   121.4389   146.7992   0   12  1 
12079.241700  83.02890   -2.4482  194.7000   47.9392   134.3355   134.8852   121.4245   146.7053   0   12  1 
12079.375918  83.07435   -2.4046  194.6490   47.9909   134.4246   134.9795   121.3606   146.6162   0   12  1 
12079.510136  83.07435   -2.4046  194.6490   47.9909   134.1559   134.7308   121.2958   146.4934   0   12  1 
12079.644354  83.19795   -2.2695  194.5100   48.1481   134.2830   134.7697   121.2639   146.6629   0   12  1 
12079.778572  83.19795   -2.2695  194.5100   48.1481   134.1087   134.8288   121.1141   146.6453   0   12  1 
12079.912790  83.19795   -2.2695  194.5100   48.1481   134.1103   134.7402   121.3256   146.6160   0   12  1 
12080.047008  83.52810   -2.1796  194.0530   48.3012   134.2850   135.0933   121.1334   146.7020   0   12  1 
12080.181226  83.66130   -2.1655  193.8610   48.3407   133.9086   134.9547   121.2598   147.0991   0   12  1 
12080.315444  83.66130   -2.1655  193.8610   48.3407   134.2526   135.0591   121.4842   146.9401   0   12  1 
12080.449662  83.66130   -2.1655  193.8610   48.3407   134.3047   134.8736   121.4174   146.9265   0   12  1 
12080.583880  84.15090   -2.1551  193.1410   48.4423   134.1493   135.2380   121.6924   147.1241   0   12  1 
12080.718098  84.15090   -2.1551  193.1410   48.4423   134.7190   135.3771   121.6386   146.8387   0   12  1 
12080.852316  84.40830   -2.1572  192.7590   48.4865   134.8801   135.5692   121.8848   147.2761   0   12  1 
12080.986534  84.40830   -2.1572  192.7590   48.4865   134.9993   135.6737   122.1517   147.4307   0   12  1 
12081.120752  84.40830   -2.1572  192.7590   48.4865   136.7579   137.3485   123.6082   149.2260   0   12  1 
12081.254970  84.87450   -2.1723  192.0630   48.5519   137.5249   138.0643   124.4783   150.0815   0   12  1 
12081.389188  85.02300   -2.1763  191.8410   48.5726   138.1770   138.7460   125.2119   150.5720   0   12  1 
12081.523406  85.02300   -2.1763  191.8410   48.5726   138.5112   138.8874   125.6290   150.8850   0   12  1 
12081.657624  85.02300   -2.1763  191.8410   48.5726   137.5336   137.9110   124.4435   149.9155   0   12  1 
12081.791842  85.63620   -2.1969  190.9220   48.6495   137.0845   137.2257   123.9208   149.5661   0   12  1 
12081.926060  85.63620   -2.1969  190.9220   48.6495   134.7871   135.5698   121.8485   147.4569   0   12  1 
12082.060278  85.63620   -2.1969  190.9220   48.6495   134.7400   135.3135   121.7789   147.0013   0   12  1 
12082.194496  86.17530   -2.2171  190.1110   48.7088   134.3333   134.8998   121.4786   146.8252   0   12  1 
12082.328714  86.17530   -2.2171  190.1110   48.7088   134.2234   135.0162   121.2357   146.7141   0   12  0 
12082.462932  86.46660   -2.2292  189.6720   48.7371   134.2019   134.9076   121.2736   146.8228   0   12  0 
12082.597150  86.46660   -2.2292  189.6720   48.7371   134.1340   134.9375   121.2494   146.8860   0   12  0 
12082.731368  86.46660   -2.2292  189.6720   48.7371   134.0325   134.9934   121.2619   146.6938   0   12  0 
12082.865586  86.61405   -2.2327  189.4500   48.7534   134.3521   135.0217   121.2415   146.6266   0   12  0 
12082.999804  86.83140   -2.2620  189.1180   48.7527   133.7022   134.8133   121.2867   146.4345   0   12  0 
12083.134022  86.83140   -2.2620  189.1180   48.7527   134.0847   134.9661   121.1176   146.6339   0   12  0 
12083.268240  87.05130   -2.3055  188.7800   48.7372   134.2141   134.9128   120.8676   146.5260   0   12  0 
12083.402458  87.23685   -2.2738  188.5070   48.7913   134.0895   134.9872   121.2377   146.6849   0   12  0 
12083.536676  87.23685   -2.2738  188.5070   48.7913   134.2067   134.8765   121.0420   146.5412   0   12  0 
12083.670894  87.33720   -2.2829  188.3550   48.7941   133.9109   134.6605   121.2401   146.6359   0   12  0 
12083.805112  87.40200   -2.2900  188.2570   48.7946   134.0947   134.9387   121.2493   146.5419   0   12  0 
12083.939330  87.40200   -2.2900  188.2570   48.7946   134.3064   134.7563   121.3176   146.5961   0   12  0 
12084.073548  87.43230   -2.2760  188.2150   48.8119   134.2577   134.6748   121.3481   146.4560   0   12  0 
12084.207766  87.43230   -2.2740  188.2170   48.8138   134.2779   134.6200   121.3219   146.2473   0   13  1 
12084.341984  87.43230   -2.2740  188.2170   48.8138   134.0169   134.5451   120.9580   146.5699   0   13  1 
12084.476202  87.43665   -2.2716  188.2120   48.8166   134.1171   134.7618   121.1400   146.3394   0   13  1 
12084.610420  87.44070   -2.2671  188.2080   48.8214   133.9798   134.6224   121.1789   146.5274   0   13  1 
12084.744638  87.44070   -2.2671  188.2080   48.8214   134.1939   134.9467   121.4397   146.6322   0   13  1 
12084.878856  87.44385   -2.2680  188.2040   48.8208   134.1035   134.8058   121.1114   146.5227   0   13  1 
12085.013074  87.44625   -2.2666  188.2020   48.8224   134.0589   134.5015   121.2419   146.3479   0   13  1 
12085.147292  87.44625   -2.2666  188.2020   48.8224   134.1219   134.6592   121.2323   146.5494   0   13  1 
12085.281510  87.44955   -2.2678  188.1980   48.8215   134.1695   134.6464   121.1240   146.5671   0   13  1 
12085.415728  87.45330   -2.2678  188.1950   48.8217   134.0500   134.7942   121.2161   146.4141   0   13  1 
12085.549946  87.45330   -2.2678  188.1950   48.8217   134.0616   134.8266   121.2458   146.4763   0   13  1 
12085.684164  87.45570   -2.2652  188.1930   48.8245   134.0707   134.5088   121.0965   146.3396   0   13  1 
12085.818382  87.45570   -2.2652  188.1930   48.8245   133.9080   134.7223   121.1435   146.3292   0   13  1 
12085.952600  87.45570   -2.2652  188.1930   48.8245   133.9870   134.6399   121.1712   146.4836   0   13  1 
12086.086818  87.38805   -2.3379  188.2850   48.7441   134.0254   134.8288   121.0506   146.2335   0   13  1 
12086.221036  87.28440   -2.4225  188.4270   48.6476   133.9717   134.8140   121.2280   146.3683   0   13  1 
12086.355254  87.28440   -2.4225  188.4270   48.6476   134.0592   134.7673   121.1186   146.5165   0   13  1 
12086.489472  87.28440   -2.4225  188.4270   48.6476   134.2071   134.7406   121.2023   146.3608   0   13  1 
12086.623690  87.03210   -2.4751  188.7990   48.5644   134.2497   134.6389   121.0586   146.5478   0   13  1 
12086.757908  87.03210   -2.4751  188.7990   48.5644   134.2802   134.9517   121.3061   146.6722   0   13  1 
12086.892126  86.83740   -2.5038  189.0870   48.5112   134.3164   134.9150   121.2367   146.4997   0   13  1 
12087.026344  86.83740   -2.5038  189.0870   48.5112   134.3179   134.8462   121.3678   146.5508   0   13  1 
12087.160562  86.83740   -2.5038  189.0870   48.5112   134.0864   134.7567   121.2697   146.9139   0   13  1 
12087.294780  86.30280   -2.5373  189.8830   48.4063   134.1307   134.8466   121.3252   146.7289   0   13  1 
12087.428998  86.07390   -2.5508  190.2230   48.3605   134.3264   134.8417   121.2695   146.7175   0   13  1 
12087.563216  86.07390   -2.5508  190.2230   48.3605   134.7237   135.1086   121.7626   147.1940   0   13  1 
12087.697434  86.07390   -2.5508  190.2230   48.3605   135.0603   135.6259   122.0637   147.6290   0   13  1 
12087.831652  85.51890   -2.5733  191.0470   48.2552   135.1873   135.7895   122.1301   147.5572   0   13  1 
12087.965870  85.51890   -2.5733  191.0470   48.2552   135.4463   136.0532   122.3002   147.7427   0   13  1 
12088.100088  85.29255   -2.5869  191.3810   48.2061   135.5374   135.9132   122.2981   147.5930   0   13  1 
12088.234306  85.03965   -2.5956  191.7550   48.1565   135.1208   135.6792   122.0787   147.7975   0   13  1 
12088.368524  85.03965   -2.5956  191.7550   48.1565   134.6806   135.3906   121.7655   147.0840   0   13  1 
12088.502742  85.03965   -2.5956  191.7550   48.1565   134.5731   135.1151   121.7451   146.8757   0   13  1 
12088.636960  85.03965   -2.5956  191.7550   48.1565   134.4702   135.0288   121.6937   146.9089   0   13  1 
12088.771178  84.47880   -2.6173  192.5810   48.0396   134.3563   135.0848   121.5658   146.7729   0   13  1 
12088.905396  84.32745   -2.6206  192.8040   48.0096   134.3908   134.7867   121.5219   146.9917   0   13  0 
12089.039614  84.32745   -2.6206  192.8040   48.0096   134.5215   134.8871   121.3898   146.8390   0   13  0 
12089.173832  84.02205   -2.6311  193.2520   47.9437   134.1501   134.8088   121.3817   146.7431   0   13  0 
12089.308050  84.02205   -2.6311  193.2520   47.9437   134.1968   134.7716   121.1862   146.4652   0   13  0 
12089.442268  84.02205   -2.6311  193.2520   47.9437   133.9946   134.7644   121.3922   146.6297   0   13  0 
12089.576486  83.68980   -2.6385  193.7390   47.8740   134.0321   134.6228   121.0721   146.4635   0   13  0 
12089.710704  83.50320   -2.5844  194.0290   47.8911   133.9376   134.6380   120.9665   146.3540   0   13  0 
12089.844922  83.50320   -2.5844  194.0290   47.8911   133.9358   134.4005   121.1932   146.2925   0   13  0 
12089.979140  83.30355   -2.4482  194.3630   47.9854   134.0940   134.4730   120.8068   146.2582   0   13  0 
12090.113358  83.14710   -2.2828  194.6440   48.1160   133.8929   134.3127   120.9057   146.2819   0   13  0 
12090.247576  83.14710   -2.2828  194.6440   48.1160   133.8278   134.2786   121.2516   146.0751   0   13  0 
12090.381794  83.09025   -2.2318  194.7440   48.1543   134.0086   134.3339   121.0809   146.3099   0   13  0 
12090.516012  83.02365   -2.1490  194.8690   48.2216   134.0207   134.4589   121.1343   146.2362   0   13  0 
12090.650230  83.02365   -2.1490  194.8690   48.2216   133.9918   134.6493   121.1194   146.4986   0   13  0 
12090.784448  83.03055   -2.1261  194.8670   48.2453   133.9280   134.5059   121.0017   146.3611   0   13  0 
12090.918666  83.02485   -2.1154  194.8800   48.2544   133.9313   134.4026   121.1018   146.2465   0   13  0 
12091.052884  83.02485   -2.1154  194.8800   48.2544   134.1654   134.3460   121.2535   146.2954   0   14  1 
12091.187102  83.02410   -2.1045  194.8860   48.2647   134.3236   134.3247   121.0742   146.3127   0   14  1 
12091.321320  83.02545   -2.0972  194.8870   48.2720   134.2551   134.3842   121.2390   146.0843   0   14  1 
12091.455538  83.02545   -2.0972  194.8870   48.2720   133.9155   134.2585   121.0978   146.2049   0   14  1 
12091.589756  83.02365   -2.0911  194.8930   48.2774   134.2035   134.4692   121.3084   146.2841   0   14  1 
12091.723974  83.02575   -2.0850  194.8930   48.2837   134.1002   134.2343   121.1287   146.0666   0   14  1 
12091.858192  83.02575   -2.0850  194.8930   48.2837   134.1415   134.6299   121.2156   146.2108   0   14  1 
12091.992410  83.02590   -2.0827  194.8950   48.2858   134.0022   134.4483   121.3065   146.4222   0   14  1 
12092.126628  83.02725   -2.0804  194.8960   48.2880   133.9251   134.4154   121.0697   146.2106   0   14  1 
12092.260846  83.02725   -2.0804  194.8960   48.2880   133.9242   134.5008   121.0975   146.2270   0   14  1 
12092.395064  83.02815   -2.0804  194.8970   48.2878   134.1805   134.4197   121.2867   146.1563   0   14  1 
12092.529282  83.02815   -2.0804  194.8970   48.2878   134.0969   134.2804   121.1087   146.3333   0   14  1 
12092.663500  83.02815   -2.0804  194.8970   48.2878   134.1546   134.4931   121.0827   146.3026   0   14  1 
12092.797718  83.10135   -2.0061  194.8140   48.3754   134.0093   134.6297   121.2677   146.3548   0   14  1 
12092.931936  83.10135   -2.0061  194.8140   48.3754   133.8655   134.6992   121.0560   146.4421   0   14  1 
12093.066154  83.20275   -1.8972  194.6990   48.5026   134.0877   134.4460   121.2136   146.7335   0   14  1 
12093.200372  83.38755   -1.8138  194.4520   48.6214   133.9984   134.8164   121.2193   146.4554   0   14  1 
12093.334590  83.38755   -1.8138  194.4520   48.6214   134.2431   134.5762   121.2581   146.5717   0   14  1 
12093.468808  83.38755   -1.8138  194.4520   48.6214   134.1307   134.4821   121.2791   146.4295   0   14  1 
12093.603026  83.71635   -1.7843  193.9740   48.7148   133.9854   134.5452   120.9147   146.3207   0   14  1 
12093.737244  83.71635   -1.7843  193.9740   48.7148   134.0731   134.6444   121.2625   146.4957   0   14  1 
12093.871462  83.94150   -1.7753  193.6420   48.7666   133.9950   134.7570   121.3019   146.3634   0   14  1 
12094.005680  83.94150   -1.7753  193.6420   48.7666   134.3253   134.7739   121.3320   146.4456   0   14  1 
12094.139898  83.94150   -1.7753  193.6420   48.7666   134.5612   134.8705   121.6308   146.6789   0   14  1 
12094.274116  84.49500   -1.7817  192.8150   48.8617   134.6811   134.9084   121.5465   146.8493   0   14  1 
12094.408334  84.71415   -1.7867  192.4860   48.8953   135.9138   136.3101   122.8877   148.4327   0   14  1 
12094.542552  84.71415   -1.7867  192.4860   48.8953   137.3943   137.8566   124.0638   150.1323   0   14  1 
12094.676770  84.71415   -1.7867  192.4860   48.8953   138.1964   138.6883   124.9792   151.0461   0   14  1 
12094.810988  85.32585   -1.8073  191.5640   48.9772   139.9926   140.6286   126.6340   153.0217   0   14  1 
12094.945206  85.32585   -1.8073  191.5640   48.9772   139.2148   139.8460   126.0052   151.9572   0   14  1 
12095.079424  85.47300   -1.8112  191.3420   48.9968   138.9690   139.4286   125.8151   151.7932   0   14  1 
12095.213642  85.47300   -1.8112  191.3420   48.9968   135.8911   136.6666   123.0136   148.5394   0   14  1 
12095.347860  85.47300   -1.8112  191.3420   48.9968   135.2636   136.1432   122.3842   147.9484   0   14  1 
12095.482078  85.93290   -1.8285  190.6460   49.0502   134.4145   135.3427   121.4032   147.0813   0   14  1 
12095.616296  86.15340   -1.8357  190.3120   49.0754   134.1303   134.5847   121.0915   146.4499   0   14  0 
12095.750514  86.15340   -1.8357  190.3120   49.0754   134.2029   134.8666   121.2177   146.2218   0   14  0 
12095.884732  86.39490   -1.8468  189.9450   49.0986   134.0985   134.5649   120.9980   146.4124   0   14  0 
12096.018950  86.39490   -1.8468  189.9450   49.0986   134.0408   134.3073   121.3426   146.1765   0   14  0 
12096.153168  86.39490   -1.8468  189.9450   49.0986   134.0818   134.1835   121.1823   146.1272   0   14  0 
12096.287386  86.68575   -1.8537  189.5040   49.1314   134.2477   134.3922   121.0938   146.1634   0   14  0 
12096.421604  86.88585   -1.9002  189.1920   49.1115   133.9718   134.4456   121.1170   146.3955   0   14  0 
12096.555822  86.88585   -1.9002  189.1920   49.1115   134.0512   134.2352   121.0940   146.2313   0   14  0 
12096.690040  87.08385   -1.9029  188.8920   49.1340   134.1667   134.6471   121.2613   146.1761   0   14  0 
12096.824258  87.23145   -1.9018  188.6690   49.1534   134.0406   134.7584   121.1424   146.3242   0   14  0 
12096.958476  87.23145   -1.9018  188.6690   49.1534   134.0471   134.6382   121.1763   146.3020   0   14  0 
12097.092694  87.34665   -1.9026  188.4950   49.1664   134.2263   134.3427   121.1933   146.5086   0   14  0 
12097.226912  87.42480   -1.9003  188.3780   49.1779   134.0041   134.5168   121.0569   146.3475   0   14  0 
12097.361130  87.42480   -1.9003  188.3780   49.1779   134.1123   134.4705   121.1170   146.2027   0   14  0 
12097.495348  87.42510   -1.8989  188.3790   49.1793   133.9941   134.3569   121.1915   146.2688   0   15  1 
12097.629566  87.43350   -1.8963  188.3680   49.1827   133.9802   134.7560   121.0591   146.5072   0   15  1 
12097.763784  87.43350   -1.8963  188.3680   49.1827   134.0409   134.4383   121.0418   146.5577   0   15  1 
12097.898002  87.43770   -1.8939  188.3630   49.1855   134.1026   134.5695   121.2677   146.5040   0   15  1 
12098.032220  87.44010   -1.8929  188.3610   49.1867   133.9968   134.4490   121.0528   146.4039   0   15  1 
12098.166438  87.44010   -1.8929  188.3610   49.1867   133.9345   134.3569   121.0651   146.2415   0   15  1 
12098.300656  87.44775   -1.8917  188.3510   49.1887   134.1621   134.8491   121.0996   146.4994   0   15  1 
12098.434874  87.44790   -1.8918  188.3520   49.1885   133.9891   134.4600   120.9990   146.3948   0   15  1 
12098.569092  87.44790   -1.8918  188.3520   49.1885   134.2782   134.5897   121.0360   146.3835   0   15  1 
12098.703310  87.45345   -1.8933  188.3460   49.1875   133.8484   134.6426   121.0786   146.5176   0   15  1 
12098.837528  87.45345   -1.8933  188.3460   49.1875   134.0060   134.3648   121.0797   146.2295   0   15  1 
12098.971746  87.45345   -1.8933  188.3460   49.1875   134.0829   134.3751   120.9935   146.2980   0   15  1 
12099.105964  87.45495   -1.8938  188.3460   49.1870   133.8691   134.3814   121.0827   146.2547   0   15  1 
12099.240182  87.41040   -1.9429  188.4060   49.1328   133.9900   134.7231   121.0793   146.4586   0   15  1 
12099.374400  87.41040   -1.9429  188.4060   49.1328   133.9910   134.4268   121.0361   146.3096   0   15  1 
12099.508618  87.41040   -1.9429  188.4060   49.1328   133.9956   134.2292   121.2041   145.9042   0   15  1 
12099.642836  87.16290   -2.0845  188.7580   48.9618   133.8667   134.4951   121.0992   146.1340   0   15  1 
12099.777054  87.16290   -2.0845  188.7580   48.9618   134.0235   134.3770   120.9271   146.2716   0   15  1 
12099.911272  87.07050   -2.0939  188.8970   48.9408   133.8796   134.6061   120.9509   146.3577   0   15  1 
12100.045490  86.83860   -2.1250  189.2430   48.8801   134.0686   134.3050   121.0379   146.2375   0   15  1 
12100.179708  86.83860   -2.1250  189.2430   48.8801   133.8521   134.4637   121.1359   146.2586   0   15  1 
12100.313926  86.83860   -2.1250  189.2430   48.8801   133.8647   134.4239   120.9333   146.4506   0   15  1 
12100.448144  86.22780   -2.1672  190.1580   48.7546   133.9576   134.6630   121.2889   146.7848   0   15  1 
12100.582362  86.22780   -2.1672  190.1580   48.7546   134.8817   135.3179   121.8421   147.2941   0   15  1 
12100.716580  85.90410   -2.1851  190.6420   48.6895   135.0416   135.6721   122.1211   147.4765   0   15  1 
12100.850798  85.90410   -2.1851  190.6420   48.6895   137.2499   137.5704   124.1357   149.7687   0   15  1 
12100.985016  85.90410   -2.1851  190.6420   48.6895   137.5267   138.0314   124.6681   150.0236   0   15  1 
12101.119234  85.42800   -2.2043  191.3530   48.5970   138.1333   138.6159   124.7647   150.5357   0   15  1 
12101.253452  85.42800   -2.2043  191.3530   48.5970   136.9798   137.6093   123.9616   149.6344   0   15  1 
12101.387670  85.27695   -2.2146  191.5770   48.5625   136.1140   136.4729   123.1424   148.6843   0   15  1 
12101.521888  85.27695   -2.2146  191.5770   48.5625   135.4592   136.1016   122.5333   148.0410   0   15  1 
12101.656106  85.27695   -2.2146  191.5770   48.5625   134.4756   135.0825   121.4605   147.0081   0   15  1 
12101.790324  84.72105   -2.2319  192.4040   48.4521   134.2721   134.9959   121.5582   146.7889   0   15  1 
12101.924542  84.72105   -2.2319  192.4040   48.4521   134.2086   134.9393   121.5242   146.7063   0   15  1 
12102.058760  84.72105   -2.2319  192.4040   48.4521   133.9443   134.6224   121.0955   146.7403   0   15  1 
12102.192978  84.49530   -2.2391  192.7390   48.4054   134.3170   134.8312   121.1771   146.6924   0   15  1 
12102.327196  84.01305   -2.2577  193.4510   48.2990   133.9470   134.9061   121.0141   146.7163   0   15  0 
12102.461414  84.01305   -2.2577  193.4510   48.2990   133.7894   134.6396   120.8418   146.5835   0   15  0 
12102.595632  83.78460   -2.2633  193.7880   48.2502   133.7601   134.5386   121.0553   146.3346   0   15  0 
12102.729850  83.78460   -2.2633  193.7880   48.2502   133.7654   134.6007   120.8431   146.4388   0   15  0 
12102.864068  83.78460   -2.2633  193.7880   48.2502   133.8326   134.4074   120.9457   146.2451   0   15  0 
12102.998286  83.53365   -2.2678  194.1580   48.1970   133.9660   134.3391   121.1161   146.3704   0   15  0 
12103.132504  83.31315   -2.1794  194.5110   48.2398   133.8862   134.6110   121.1578   146.3033   0   15  0 
12103.266722  83.31315   -2.1794  194.5110   48.2398   133.7149   134.2618   120.9060   146.1361   0   15  0 
12103.400940  83.21820   -2.0930  194.6780   48.3052   133.8827   134.3326   120.8856   146.2258   0   15  0 
12103.535158  83.07615   -1.9162  194.9440   48.4492   133.7081   134.4485   120.9340   146.3941   0   15  0 
12103.669376  83.07615   -1.9162  194.9440   48.4492   133.5923   134.2817   120.8941   146.3184   0   15  0 
12103.803594  83.02470   -1.8228  195.0510   48.5297   133.9990   134.4291   120.8762   146.3944   0   15  0 
12103.937812  83.02665   -1.7759  195.0640   48.5759   133.7289   134.7388   120.8513   146.3398   0   15  0 
12104.072030  83.02665   -1.7759  195.0640   48.5759   133.8758   134.4905   120.8132   146.2861   0   15  0 
12104.206248  83.02875   -1.7605  195.0670   48.5913   133.7788   134.3289   120.9220   146.2851   0   15  0 
12104.340466  83.02470   -1.7432  195.0800   48.6071   133.5129   134.4750   120.7594   146.2629   0   15  0 
12104.474684  83.02470   -1.7432  195.0800   48.6071   133.6870   134.4726   121.0756   146.3970   0   15  0 
12104.608902  83.02500   -1.7376  195.0820   48.6126   133.7233   134.2419   120.8336   146.3237   0   16  1 
12104.743120  83.02500   -1.7376  195.0820   48.6126   133.6546   134.5856   120.9899   146.3656   0   16  1 
12104.877338  83.02560   -1.7216  195.0880   48.6281   133.8996   134.1947   121.1025   146.5592   0   16  1 
12105.011556  83.02455   -1.7180  195.0920   48.6312   133.7777   134.3809   120.6419   146.3988   0   16  1 
12105.145774  83.02455   -1.7180  195.0920   48.6312   133.6590   134.2365   120.8795   146.0717   0   16  1 
12105.279992  83.02635   -1.7132  195.0920   48.6361   134.0034   134.2970   121.0426   146.0823   0   16  1 
12105.414210  83.02485   -1.7145  195.0950   48.6344   133.9725   134.4164   120.7423   146.5437   0   16  1 
12105.548428  83.02485   -1.7145  195.0950   48.6344   133.6606   134.5284   120.6740   146.4062   0   16  1 
12105.682646  83.02650   -1.7115  195.0950   48.6375   133.9089   134.6385   120.9319   146.6048   0   16  1 
12105.816864  83.02830   -1.7110  195.0950   48.6380   133.7931   134.6410   120.9924   146.5387   0   16  1 
12105.951082  83.02830   -1.7110  195.0950   48.6380   133.8658   134.6517   121.0618   146.4969   0   16  1 
12106.085300  83.02830   -1.7110  195.0950   48.6380   133.9320   134.8302   121.0860   146.6948   0   16  1 
12106.219518  83.02995   -1.7111  195.0950   48.6379   133.7899   134.4830   120.7284   146.3330   0   16  1 
12106.353736  83.02995   -1.7111  195.0950   48.6379   133.8096   134.4643   120.6487   146.3963   0   16  1 
12106.487954  83.05275   -1.6932  195.0680   48.6600   133.8552   134.4702   120.7822   146.3693   0   16  1 
12106.622172  83.12655   -1.6193  194.9830   48.7475   133.7609   134.4999   120.8511   146.4252   0   16  1 
12106.756390  83.12655   -1.6193  194.9830   48.7475   133.9838   134.4046   121.0031   146.4033   0   16  1 
12106.890608  83.12655   -1.6193  194.9830   48.7475   133.9298   134.6669   120.8215   146.5258   0   16  1 
12107.024826  83.43285   -1.4391  194.5850   48.9863   133.6962   134.6137   120.8427   146.5009   0   16  1 
12107.159044  83.43285   -1.4391  194.5850   48.9863   133.6393   134.7393   120.7863   146.4051   0   16  1 
12107.293262  83.61450   -1.4203  194.3200   49.0409   133.7394   134.4249   120.7331   146.3489   0   16  1 
12107.427480  83.61450   -1.4203  194.3200   49.0409   133.7679   134.3948   120.8565   146.3137   0   16  1 
12107.561698  83.61450   -1.4203  194.3200   49.0409   133.6304   134.3144   120.9202   146.1108   0   16  1 
12107.695916  84.19545   -1.4051  193.4550   49.1673   133.8342   134.2961   120.9085   146.0973   0   16  1 
12107.830134  84.19545   -1.4051  193.4550   49.1673   134.0618   134.3623   121.1199   146.1308   0   16  1 
12107.964352  84.27105   -1.4033  193.3420   49.1831   134.1314   134.5445   120.9696   146.2749   0   16  1 
12108.098570  84.63810   -1.4110  192.7880   49.2419   134.0943   134.5689   121.2028   146.5503   0   16  1 
12108.232788  84.63810   -1.4110  192.7880   49.2419   134.5196   135.1363   121.6077   146.9674   0   16  1 
12108.367006  84.63810   -1.4110  192.7880   49.2419   134.8625   135.1114   121.7486   147.0922   0   16  1 
12108.501224  85.17060   -1.4255  191.9810   49.3192   135.9067   136.0473   122.9105   148.2833   0   16  1 
12108.635442  85.17060   -1.4255  191.9810   49.3192   135.5863   135.9359   122.5548   147.8558   0   16  1 
12108.769660  85.41660   -1.4332  191.6070   49.3520   135.7733   136.1185   122.7186   147.9126   0   16  1 
12108.903878  85.41660   -1.4332  191.6070   49.3520   134.6528   135.3837   121.8027   147.5016   0   16  1 
12109.038096  85.41660   -1.4332  191.6070   49.3520   134.3993   135.2023   121.1793   146.8199   0   16  1 
12109.172314  85.84890   -1.4502  190.9480   49.4031   134.2814   134.6087   120.9417   146.5497   0   16  1 
12109.306532  86.08980   -1.4602  190.5800   49.4294   134.0007   134.5231   120.7588   146.4977   0   16  1 
12109.440750  86.08980   -1.4602  190.5800   49.4294   134.0934   134.4418   121.1057   146.4838   0   16  0 
12109.574968  86.45250   -1.4721  190.0260   49.4699   134.0594   134.7259   121.0679   146.5793   0   16  0 
12109.709186  86.45250   -1.4721  190.0260   49.4699   133.7728   134.3679   121.0146   146.2300   0   16  0 
12109.843404  86.45250   -1.4721  190.0260   49.4699   133.9563   134.5153   120.9915   146.6108   0   16  0 
12109.977622  86.62080   -1.4763  189.7690   49.4891   133.6970   134.4227   120.7036   146.3531   0   16  0 
12110.111840  86.62080   -1.4763  189.7690   49.4891   133.9315   134.1374   121.0242   146.2255   0   16  0 
12110.246058  86.81295   -1.5019  189.4710   49.4896   133.8349   134.5608   121.0886   146.2606   0   16  0 
12110.380276  86.90625   -1.5469  189.3200   49.4572   133.8578   134.5168   121.0435   146.2578   0   16  0 
12110.514494  86.90625   -1.5469  189.3200   49.4572   133.9200   134.3678   120.7382   146.2221   0   16  0 
12110.648712  87.17085   -1.5304  188.9200   49.5075   133.7662   134.5003   120.8395   146.2759   0   16  0 
12110.782930  87.32550   -1.5393  188.6830   49.5178   133.6100   134.2674   120.7850   146.4071   0   16  0 
12110.917148  87.32550   -1.5393  188.6830   49.5178   134.0206   134.0964   121.0000   146.0957   0   16  0 
12111.051366  87.40380   -1.5464  188.5630   49.5202   134.0952   134.2643   121.1922   146.2539   0   16  0 
12111.185584  87.42705   -1.5399  188.5300   49.5293   133.9962   134.4617   120.9103   146.1535   0   16  0 
12111.319802  87.42705   -1.5399  188.5300   49.5293   133.8593   134.2436   120.8232   146.1858   0   16  0 
12111.454020  87.43155   -1.5367  188.5250   49.5329   133.8886   134.2516   120.8948   146.2419   0   17  1 
12111.588238  87.43575   -1.5329  188.5200   49.5372   133.9504   134.3539   120.9880   146.2933   0   17  1 
12111.722456  87.43575   -1.5329  188.5200   49.5372   134.1060   134.3013   120.8796   146.0753   0   17  1 
12111.856674  87.43905   -1.5323  188.5170   49.5380   134.0429   134.3161   120.9005   146.1217   0   17  1 
12111.990892  87.44610   -1.5300  188.5080   49.5410   133.8788   134.4064   120.8517   146.1239   0   17  1 
12112.125110  87.44610   -1.5300  188.5080   49.5410   133.9167   134.2013   120.8282   146.0980   0   17  1 
12112.259328  87.44550   -1.5301  188.5100   49.5408   133.8003   134.2361   120.7349   146.2378   0   17  1 
12112.393546  87.45015   -1.5312  188.5040   49.5401   133.6676   134.3492   120.7532   146.5229   0   17  1 
12112.527764  87.45015   -1.5312  188.5040   49.5401   133.9732   134.2352   120.8192   146.1451   0   17  1 
12112.661982  87.45390   -1.5313  188.5010   49.5403   133.7921   134.4979   120.8914   146.2933   0   17  1 
12112.796200  87.45390   -1.5313  188.5010   49.5403   133.8412   134.3859   121.1618   146.2200   0   17  1 
12112.930418  87.45390   -1.5313  188.5010   49.5403   134.0229   134.3006   120.9471   146.1543   0   17  1 
12113.064636  87.45690   -1.5304  188.4990   49.5413   133.8166   134.0935   120.9813   146.0655   0   17  1 
12113.198854  87.40860   -1.5809  188.5650   49.4852   133.9536   134.1867   120.9805   146.1734   0   17  1 
12113.333072  87.40860   -1.5809  188.5650   49.4852   133.8806   134.2260   120.9769   146.0012   0   17  1 
12113.467290  87.31815   -1.6634  188.6890   49.3921   133.8688   134.2224   120.9368   146.1246   0   17  1 
12113.601508  87.31815   -1.6634  188.6890   49.3921   133.8406   134.0459   120.9704   146.0864   0   17  1 
12113.735726  87.31815   -1.6634  188.6890   49.3921   133.9878   134.1965   120.9357   145.9613   0   17  1 
12113.869944  86.94030   -1.7532  189.2510   49.2548   133.7716   134.1460   120.7838   146.2071   0   17  1 
12114.004162  86.81385   -1.7693  189.4410   49.2220   133.7103   134.5008   120.6975   146.3033   0   17  1 
12114.138380  86.81385   -1.7693  189.4410   49.2220   133.8794   134.3218   120.7768   146.2337   0   17  1 
12114.272598  86.81385   -1.7693  189.4410   49.2220   133.8989   134.3676   120.7613   146.2223   0   17  1 
12114.406816  86.20140   -1.8090  190.3650   49.0971   133.8751   134.5605   120.8906   146.4421   0   17  1 
12114.541034  86.20140   -1.8090  190.3650   49.0971   134.8050   135.5204   121.6946   147.4953   0   17  1 
12114.675252  86.12760   -1.8135  190.4760   49.0818   136.1979   136.9437   123.3247   148.9922   0   17  1 
12114.809470  86.12760   -1.8135  190.4760   49.0818   136.8619   137.7505   123.5667   149.7978   0   17  1 
12114.943688  86.12760   -1.8135  190.4760   49.0818   139.6592   140.2807   126.2443   152.5360   0   17  1 
12115.077906  85.57875   -1.8387  191.3020   48.9729   139.2174   139.9284   125.7185   151.9846   0   17  1 
12115.212124  85.33140   -1.8535  191.6720   48.9184   139.3167   139.9841   125.9875   152.3144   0   17  1 
12115.346342  85.33140   -1.8535  191.6720   48.9184   136.4435   137.3176   123.3795   149.3366   0   17  1 
12115.480560  85.33140   -1.8535  191.6720   48.9184   135.4466   136.3761   122.3066   148.6193   0   17  1 
12115.614778  84.87975   -1.8715  192.3480   48.8248   134.7120   135.5402   121.7025   147.4492   0   17  1 
12115.748996  84.87975   -1.8715  192.3480   48.8248   134.1578   134.6476   121.0865   146.6166   0   17  1 
12115.883214  84.87975   -1.8715  192.3480   48.8248   134.1585   134.7584   121.1334   146.7098   0   17  1 
12116.017432  84.62775   -1.8848  192.7230   48.7675   133.9233   134.5353   121.0959   146.4444   0   17  1 
12116.151650  84.62775   -1.8848  192.7230   48.7675   133.8997   134.5315   120.9182   146.5052   0   17  0 
12116.285868  84.07320   -1.9052  193.5480   48.6459   134.0212   134.4330   120.8011   146.3167   0   17  0 
12116.420086  84.07320   -1.9052  193.5480   48.6459   133.6970   134.5660   120.8196   146.3672   0   17  0 
12116.554304  84.07320   -1.9052  193.5480   48.6459   133.8271   134.4293   120.8177   146.4202   0   17  0 
12116.688522  83.77215   -1.9137  193.9950   48.5798   133.8103   134.3776   120.8135   146.3094   0   17  0 
12116.822740  83.77215   -1.9137  193.9950   48.5798   133.6842   134.5608   120.9240   146.2956   0   17  0 
12116.956958  83.52945   -1.9080  194.3580   48.5376   133.8354   134.3994   120.9259   146.3392   0   17  0 
12117.091176  83.40150   -1.8573  194.5640   48.5616   133.7740   134.1985   120.8298   146.3118   0   17  0 
12117.225394  83.40150   -1.8573  194.5640   48.5616   133.6648   134.1601   120.7951   146.3822   0   17  0 
12117.359612  83.19975   -1.6830  194.9190   48.6911   133.7647   134.3532   120.7633   146.3178   0   17  0 
12117.493830  83.07270   -1.5230  195.1600   48.8212   133.6666   134.1240   120.8354   146.2844   0   17  0 
12117.628048  83.07270   -1.5230  195.1600   48.8212   133.5906   134.1488   120.9421   146.2769   0   17  0 
12117.762266  83.02590   -1.4572  195.2520   48.8756   133.4020   134.2599   120.5775   146.2186   0   17  0 
12117.896484  83.02965   -1.3980  195.2670   48.9341   133.6670   134.2767   120.8837   146.0684   0   17  0 
12118.030702  83.02965   -1.3980  195.2670   48.9341   133.5906   134.0799   120.7019   146.0100   0   17  0 
12118.164920  83.02440   -1.3886  195.2790   48.9420   133.6966   134.1643   120.8426   145.9581   0   17  0 
12118.299138  83.02380   -1.3811  195.2830   48.9491   133.5571   134.1138   120.7794   146.1509   0   17  0 
12118.433356  83.02380   -1.3811  195.2830   48.9491   133.6208   134.4673   120.8409   146.2225   0   17  0 
12118.567574  83.02530   -1.3636  195.2880   48.9664   133.6432   134.5832   120.7830   146.4795   0   18  1 
12118.701792  83.02215   -1.3556  195.2970   48.9733   133.6670   134.0908   120.6571   146.3010   0   18  1 
12118.836010  83.02215   -1.3556  195.2970   48.9733   133.5652   134.1997   120.8063   146.1917   0   18  1 
12118.970228  83.02410   -1.3495  195.2970   48.9795   133.5709   134.3463   120.6398   145.9875   0   18  1 
12119.104446  83.02425   -1.3468  195.2990   48.9820   133.7557   134.3298   120.4924   146.5853   0   18  1 
12119.238664  83.02425   -1.3468  195.2990   48.9820   133.5189   134.3937   120.4957   146.3272   0   18  1 
12119.372882  83.02545   -1.3426  195.3000   48.9862   133.7145   134.2023   120.8372   146.2016   0   18  1 
12119.507100  83.02515   -1.3433  195.3010   48.9853   133.5666   134.3956   120.6435   146.1727   0   18  1 
12119.641318  83.02515   -1.3433  195.3010   48.9853   133.7170   134.3411   120.5283   146.3355   0   18  1 
12119.775536  83.02725   -1.3418  195.3010   48.9868   133.6453   134.3958   120.9314   146.2258   0   18  1 
12119.909754  83.02725   -1.3418  195.3010   48.9868   133.5641   134.3308   120.8768   146.0662   0   18  1 
12120.043972  83.03820   -1.3367  195.2890   48.9937   133.7348   134.3810   120.6574   146.3781   0   18  1 
12120.178190  83.03820   -1.3367  195.2890   48.9937   133.7044   134.1656   120.7316   146.1469   0   18  1 
12120.312408  83.03820   -1.3367  195.2890   48.9937   133.7255   134.2367   120.8628   146.3746   0   18  1 
12120.446626  83.20140   -1.1699  195.1010   49.1909   133.6677   134.2946   120.8428   146.3544   0   18  1 
12120.580844  83.20140   -1.1699  195.1010   49.1909   133.8034   134.4248   120.9849   146.3481   0   18  1 
12120.715062  83.29590   -1.1127  194.9780   49.2665   133.6655   134.3949   120.8274   146.2941   0   18  1 
12120.849280  83.38575   -1.0866  194.8520   49.3104   133.6922   134.3067   120.7299   146.3772   0   18  1 
12120.983498  83.38575   -1.0866  194.8520   49.3104   133.7248   134.3922   120.8548   146.2399   0   18  1 
12121.117716  83.38575   -1.0866  194.8520   49.3104   133.6993   134.6245   120.9905   146.2750   0   18  1 
12121.251934  83.87955   -1.0457  194.1230   49.4491   133.7052   134.3341   120.8221   146.1195   0   18  1 
12121.386152  83.87955   -1.0457  194.1230   49.4491   133.9006   134.5282   120.9269   146.3392   0   18  1 
12121.520370  84.10170   -1.0452  193.7880   49.4924   134.0184   134.3286   120.9461   146.2267   0   18  1 
12121.654588  84.10170   -1.0452  193.7880   49.4924   133.9977   134.1735   121.0166   146.1147   0   18  1 
12121.788806  84.10170   -1.0452  193.7880   49.4924   134.0147   134.3475   120.9436   146.3300   0   18  1 
12121.923024  84.56760   -1.0532  193.0810   49.5712   134.0675   134.4879   120.8720   146.3662   0   18  1 
12122.057242  84.78585   -1.0578  192.7490   49.6057   133.9602   134.3830   120.9224   146.3932   0   18  1 
12122.191460  84.78585   -1.0578  192.7490   49.6057   134.1534   134.4320   120.9785   146.4299   0   18  1 
12122.325678  84.78585   -1.0578  192.7490   49.6057   134.0508   134.4876   121.0604   146.4099   0   18  1 
12122.459896  85.31595   -1.0744  191.9390   49.6802   134.0064   134.6866   121.1126   146.5741   0   18  1 
12122.594114  85.31595   -1.0744  191.9390   49.6802   134.0917   134.6413   121.0025   146.3549   0   18  1 
12122.728332  85.55745   -1.0821  191.5690   49.7121   133.9399   134.6650   121.0885   146.4645   0   18  1 
12122.862550  85.55745   -1.0821  191.5690   49.7121   134.0706   134.4181   121.0741   146.5007   0   18  1 
12122.996768  85.55745   -1.0821  191.5690   49.7121   134.4664   134.6377   121.1039   146.4771   0   18  1 
12123.130986  85.77180   -1.0901  191.2400   49.7382   134.4434   134.7956   121.1495   146.3215   0   18  1 
12123.265204  86.29815   -1.1088  190.4310   49.7993   134.3675   134.6261   121.1529   146.5024   0   18  1 
12123.399422  86.29815   -1.1088  190.4310   49.7993   134.4414   134.4747   121.1238   146.3792   0   18  1 
12123.533640  86.51460   -1.1156  190.0980   49.8237   134.1211   134.4389   121.1344   146.0680   0   18  0 
12123.667858  86.51460   -1.1156  190.0980   49.8237   134.3118   134.5569   121.1505   146.1616   0   18  0 
12123.802076  86.51460   -1.1156  190.0980   49.8237   133.8901   134.2430   120.8635   146.2363   0   18  0 
12123.936294  86.88825   -1.1280  189.5220   49.8627   134.0476   134.3603   121.0241   146.1826   0   18  0 
12124.070512  87.02760   -1.1988  189.2940   49.8108   133.9990   134.3061   120.9524   146.0192   0   18  0 
12124.204730  87.02760   -1.1988  189.2940   49.8108   133.9283   134.4658   120.9841   146.3599   0   18  0 
12124.338948  87.06840   -1.2166  189.2280   49.7985   134.0025   134.2800   120.9992   146.2359   0   18  0 
12124.473166  87.28860   -1.1826  188.8970   49.8603   134.1724   134.2139   120.9041   146.3438   0   18  0 
12124.607384  87.28860   -1.1826  188.8970   49.8603   133.8909   134.3238   120.7742   146.2194   0   18  0 
12124.741602  87.37245   -1.1814  188.7690   49.8718   133.9905   134.2472   121.0126   146.1016   0   18  0 
12124.875820  87.41775   -1.1876  188.6990   49.8712   133.8293   134.2912   120.8706   146.2273   0   18  0 
12125.010038  87.41775   -1.1876  188.6990   49.8712   134.0466   134.3565   121.0502   146.2422   0   18  0 
12125.144256  87.43200   -1.1763  188.6800   49.8841   133.9317   134.2487   120.9615   146.1926   0   19  1 
12125.278474  87.42885   -1.1685  188.6880   49.8913   134.1694   134.5093   120.9409   146.3755   0   19  1 
12125.412692  87.42885   -1.1685  188.6880   49.8913   134.0155   134.5856   120.9488   146.5749   0   19  1 
12125.546910  87.43890   -1.1644  188.6750   49.8965   133.9875   134.7054   121.0155   146.5424   0   19  1 
12125.681128  87.44190   -1.1620  188.6720   49.8991   133.8692   134.5106   120.9896   146.4026   0   19  1 
12125.815346  87.44190   -1.1620  188.6720   49.8991   133.9833   134.4072   120.8098   146.3014   0   19  1 
12125.949564  87.44505   -1.1634  188.6680   49.8980   133.9783   134.3353   120.8454   146.3998   0   19  1 
12126.083782  87.44850   -1.1599  188.6650   49.9018   133.7959   134.4489   120.7723   146.1378   0   19  1 
12126.218000  87.44850   -1.1599  188.6650   49.9018   133.8030   134.4941   120.9478   146.1336   0   19  1 
12126.352218  87.45270   -1.1590  188.6610   49.9030   133.8423   134.4655   120.9823   146.2845   0   19  1 
12126.486436  87.45270   -1.1590  188.6610   49.9030   133.9967   134.3541   120.7414   146.4507   0   19  1 
12126.620654  87.45270   -1.1590  188.6610   49.9030   133.8493   134.3863   120.9431   146.4234   0   19  1 
12126.754872  87.44760   -1.1649  188.6710   49.8963   133.7239   134.2953   120.8967   146.1632   0   19  1 
12126.889090  87.41070   -1.2055  188.7210   49.8513   133.6621   134.5186   120.8333   146.2327   0   19  1 
12127.023308  87.41070   -1.2055  188.7210   49.8513   133.8824   134.2110   120.9447   146.0819   0   19  1 
12127.157526  87.35400   -1.2637  188.7980   49.7864   133.7146   134.2168   120.7197   146.2545   0   19  1 
12127.291744  87.35400   -1.2637  188.7980   49.7864   133.8737   134.3715   120.6021   146.3020   0   19  1 
12127.425962  87.35400   -1.2637  188.7980   49.7864   133.5628   134.4137   120.6601   146.3946   0   19  1 
12127.560180  87.05535   -1.3748  189.2380   49.6378   133.7269   134.5569   120.6958   146.5257   0   19  1 
12127.694398  87.05535   -1.3748  189.2380   49.6378   133.7183   134.4736   120.6682   146.4335   0   19  1 
12127.828616  86.79705   -1.4062  189.6290   49.5722   133.6840   134.6146   120.7664   146.5237   0   19  1 
12127.962834  86.79705   -1.4062  189.6290   49.5722   133.7106   134.4336   120.8391   146.3531   0   19  1 
12128.097052  86.79705   -1.4062  189.6290   49.5722   133.7625   134.2562   120.8359   146.5077   0   19  1 
12128.231270  86.18565   -1.4446  190.5580   49.4471   134.3026   134.8121   120.8831   146.7677   0   19  1 
12128.365488  86.11095   -1.4507  190.6710   49.4299   134.6781   135.2217   121.9156   147.1341   0   19  1 
12128.499706  86.11095   -1.4507  190.6710   49.4299   135.0735   135.3289   121.9603   147.5797   0   19  1 
12128.633924  85.81680   -1.4643  191.1170   49.3715   136.4362   136.7425   123.0114   148.9364   0   19  1 
12128.768142  85.81680   -1.4643  191.1170   49.3715   135.8380   136.6060   122.8355   148.8258   0   19  1 
12128.902360  85.81680   -1.4643  191.1170   49.3715   136.1846   136.7249   122.8378   148.8036   0   19  1 
12129.036578  85.19490   -1.4988  192.0550   49.2364   134.9587   135.3541   121.6880   147.5267   0   19  1 
12129.170796  85.19490   -1.4988  192.0550   49.2364   134.3425   135.1394   121.1940   147.0986   0   19  1 
12129.305014  85.19490   -1.4988  192.0550   49.2364   134.0350   134.6048   120.9745   146.6669   0   19  1 
12129.439232  84.87225   -1.5109  192.5410   49.1690   133.7291   134.4515   120.8243   146.3407   0   19  1 
12129.573450  84.87225   -1.5109  192.5410   49.1690   133.6787   134.2939   120.8471   146.2750   0   19  1 
12129.707668  84.87225   -1.5109  192.5410   49.1690   133.8853   134.1854   120.8486   146.0254   0   19  1 
12129.841886  84.32310   -1.5349  193.3640   49.0461   133.8639   134.2024   120.9456   146.2463   0   19  1 
12129.976104  84.32310   -1.5349  193.3640   49.0461   133.7528   134.4139   120.7863   146.0912   0   19  0 
12130.110322  84.32310   -1.5349  193.3640   49.0461   133.7473   134.2424   120.6589   146.2411   0   19  0 
12130.244540  83.77230   -1.5532  194.1870   48.9225   133.7787   134.0444   120.8898   146.0030   0   19  0 
12130.378758  83.77230   -1.5532  194.1870   48.9225   133.8410   134.1686   120.8095   145.9428   0   19  0 
12130.512976  83.77230   -1.5532  194.1870   48.9225   133.5908   134.2516   120.8665   146.1817   0   19  0 
12130.647194  83.57475   -1.5313  194.4900   48.9046   133.7199   134.4416   120.8401   146.2027   0   19  0 
12130.781412  83.57475   -1.5313  194.4900   48.9046   133.6554   134.1201   120.7142   146.1740   0   19  0 
12130.915630  83.41980   -1.3902  194.7670   49.0114   133.5790   134.0694   120.8233   145.9800   0   19  0 
12131.049848  83.26455   -1.2403  195.0480   49.1261   133.6640   133.8894   120.5609   145.9587   0   19  0 
12131.184066  83.26455   -1.2403  195.0480   49.1261   133.8043   133.9753   120.8300   146.0454   0   19  0 
12131.318284  83.11020   -1.1216  195.3190   49.2097   133.7168   133.9541   120.6953   146.0347   0   19  0 
12131.452502  83.04735   -1.0527  195.4370   49.2636   133.6468   134.2270   120.8049   145.8736   0   19  0 
12131.586720  83.04735   -1.0527  195.4370   49.2636   133.5728   133.9895   120.5790   146.0309   0   19  0 
12131.720938  83.02410   -1.0256  195.4820   49.2850   133.5598   134.1045   120.6828   146.2531   0   19  0 
12131.855156  83.03130   -1.0143  195.4760   49.2974   133.7802   133.8334   120.7928   145.9154   0   19  0 
12131.989374  83.03130   -1.0143  195.4760   49.2974   133.5108   134.1179   120.7068   145.8943   0   19  0 
12132.123592  83.02560   -1.0015  195.4900   49.3085   133.8413   133.9689   120.6718   146.0864   0   20  1 
12132.257810  83.02755   -0.9913  195.4920   49.3187   133.6756   134.0415   120.6806   146.2671   0   20  1 
12132.392028  83.02755   -0.9913  195.4920   49.3187   133.5374   134.1032   120.8613   146.0766   0   20  1 
12132.526246  83.02455   -0.9842  195.5000   49.3248   133.6624   134.0973   120.9248   146.1600   0   20  1 
12132.660464  83.02605   -0.9806  195.5000   49.3285   133.7279   134.2098   120.7138   146.0455   0   20  1 
12132.794682  83.02605   -0.9806  195.5000   49.3285   133.8913   134.0627   120.7907   146.1945   0   20  1 
12132.928900  83.02590   -0.9771  195.5030   49.3317   133.6703   134.1604   120.8904   146.0551   0   20  1 
12133.063118  83.02665   -0.9762  195.5030   49.3326   133.7475   134.1078   120.5666   146.0489   0   20  1 
12133.197336  83.02665   -0.9762  195.5030   49.3326   133.4899   134.1499   120.6454   145.9304   0   20  1 
12133.331554  83.02815   -0.9758  195.5040   49.3329   133.4766   133.8083   120.7877   145.9605   0   20  1 
12133.465772  83.02845   -0.9745  195.5050   49.3341   133.7338   133.8566   120.6743   145.7972   0   20  1 
12133.599990  83.02845   -0.9745  195.5050   49.3341   133.7587   133.8479   120.7175   146.0240   0   20  1 
12133.734208  83.02845   -0.9745  195.5050   49.3341   133.5355   134.1601   120.7421   145.9129   0   20  1 
12133.868426  83.02845   -0.9745  195.5050   49.3341   133.5651   133.9074   120.6417   146.1359   0   20  1 
12134.002644  83.12895   -0.8711  195.3910   49.4562   133.6450   134.0986   120.7784   145.9499   0   20  1 
12134.136862  83.16240   -0.8344  195.3530   49.4991   133.5244   133.8322   120.7216   145.9383   0   20  1 
12134.271080  83.16240   -0.8344  195.3530   49.4991   133.7257   134.0474   120.8367   146.0792   0   20  1 
12134.405298  83.33790   -0.7153  195.1280   49.6524   133.5281   134.2688   120.7364   146.0872   0   20  1 
12134.539516  83.33790   -0.7153  195.1280   49.6524   133.7451   133.9834   120.5943   146.0250   0   20  1 
12134.673734  83.33790   -0.7153  195.1280   49.6524   133.7455   134.1570   120.6113   145.9408   0   20  1 
12134.807952  83.80350   -0.6601  194.4420   49.8012   133.6606   134.1773   120.9180   146.0694   0   20  1 
12134.942170  83.94360   -0.6581  194.2300   49.8309   134.0520   134.0782   120.7393   146.2013   0   20  1 
12135.076388  83.94360   -0.6581  194.2300   49.8309   133.7997   134.3246   120.8090   146.0950   0   20  1 
12135.210606  83.94360   -0.6581  194.2300   49.8309   133.8197   134.0961   120.9114   146.1409   0   20  1 
12135.344824  84.55530   -0.6607  193.2980   49.9447   133.7512   134.2628   120.7138   145.9875   0   20  1 
12135.479042  84.55530   -0.6607  193.2980   49.9447   133.8807   134.3539   120.8512   146.3005   0   20  1 
12135.613260  84.70035   -0.6626  193.0760   49.9693   133.6922   134.2041   120.7391   146.0678   0   20  1 
12135.747478  84.70035   -0.6626  193.0760   49.9693   133.7725   134.3287   120.5192   146.4170   0   20  1 
12135.881696  84.70035   -0.6626  193.0760   49.9693   133.8274   134.3412   120.6723   146.1636   0   20  1 
12136.015914  85.22625   -0.6783  192.2670   50.0463   133.8306   134.4542   120.5638   146.0499   0   20  1 
12136.150132  85.46730   -0.6868  191.8950   50.0784   133.4968   134.3193   120.6644   146.1015   0   20  1 
12136.284350  85.46730   -0.6868  191.8950   50.0784   133.6564   134.2277   120.6609   145.9405   0   20  1 
12136.418568  85.46730   -0.6868  191.8950   50.0784   133.8191   134.5086   120.7510   146.5979   0   20  1 
12136.552786  85.61055   -0.6903  191.6740   50.0984   133.6785   134.6599   120.8127   146.3121   0   20  1 
12136.687004  85.61055   -0.6903  191.6740   50.0984   134.0102   134.2173   120.7171   146.3298   0   20  1 
12136.821222  86.13165   -0.7103  190.8670   50.1605   133.8007   134.2242   120.7615   146.1738   0   20  0 
12136.955440  86.34555   -0.7202  190.5350   50.1826   133.7392   134.2948   120.7525   146.2055   0   20  0 
12137.089658  86.34555   -0.7202  190.5350   50.1826   133.6818   134.4042   120.5078   146.3880   0   20  0 
12137.223876  86.34555   -0.7202  190.5350   50.1826   133.5883   134.2103   120.6558   146.0322   0   20  0 
12137.358094  86.64525   -0.7343  190.0690   50.2118   133.8235   134.3210   120.7278   146.3615   0   20  0 
12137.492312  86.64525   -0.7343  190.0690   50.2118   133.8297   134.1607   120.6880   146.2422   0   20  0 
12137.626530  86.74350   -0.7811  189.9070   50.1792   134.0887   134.5730   120.6657   146.3744   0   20  0 
12137.760748  86.97675   -0.7902  189.5450   50.2019   133.8409   134.3595   120.6573   146.4150   0   20  0 
12137.894966  86.97675   -0.7902  189.5450   50.2019   134.1777   134.3201   121.0007   146.4468   0   20  0 
12138.029184  87.17850   -0.7798  189.2350   50.2388   134.0528   134.3112   120.8706   146.4531   0   20  0 
12138.163402  87.32280   -0.8062  189.0070   50.2310   133.9025   134.4875   120.9208   146.4820   0   20  0 
12138.297620  87.32280   -0.8062  189.0070   50.2310   134.0358   134.3393   121.0998   146.4487   0   20  0 
12138.431838  87.41130   -0.7989  188.8720   50.2494   134.1281   134.3101   121.0791   146.4101   0   20  0 
12138.566056  87.42645   -0.8005  188.8490   50.2496   133.9932   134.5741   121.1205   146.5023   0   20  0 
12138.700274  87.42645   -0.8005  188.8490   50.2496   133.9205   134.4197   120.7996   146.2825   0   20  0 
12138.834492  87.42645   -0.7989  188.8510   50.2511   133.9162   134.3243   120.8388   146.4326   0   21  1 
12138.968710  87.43695   -0.7950  188.8370   50.2561   133.8263   134.3518   120.7890   146.6389   0   21  1 
12139.102928  87.43695   -0.7950  188.8370   50.2561   133.7893   134.1912   120.9559   146.1743   0   21  1 
12139.237146  87.43890   -0.7950  188.8350   50.2563   133.8301   134.4225   120.7277   146.1000   0   21  1 
12139.371364  87.44580   -0.7925  188.8260   50.2595   133.9224   134.2603   120.6700   146.1146   0   21  1 
12139.505582  87.44580   -0.7925  188.8260   50.2595   133.8681   134.1978   120.7313   145.9357   0   21  1 
12139.639800  87.44730   -0.7939  188.8250   50.2582   133.7905   134.0848   120.9595   146.1126   0   21  1 
12139.774018  87.45150   -0.7924  188.8200   50.2601   133.7890   134.1750   120.6335   146.1471   0   21  1 
12139.908236  87.45150   -0.7924  188.8200   50.2601   133.9309   134.2017   120.7525   146.1362   0   21  1 
12140.042454  87.45435   -0.7932  188.8180   50.2594   133.6637   134.3017   120.7970   146.2048   0   21  1 
12140.176672  87.45600   -0.7926  188.8170   50.2601   133.7729   134.5063   120.8001   146.2630   0   21  1 
12140.310890  87.45600   -0.7926  188.8170   50.2601   133.6113   134.1584   120.4927   146.1036   0   21  1 
12140.445108  87.45600   -0.7926  188.8170   50.2601   133.8181   134.4422   120.7001   146.3430   0   21  1 
12140.579326  87.34755   -0.9066  188.9660   50.1330   133.6618   134.4069   120.7282   146.5359   0   21  1 
12140.713544  87.34755   -0.9066  188.9660   50.1330   133.6295   134.5960   120.7920   146.2508   0   21  1 
12140.847762  87.27795   -0.9546  189.0650   50.0764   133.8548   134.3949   120.6520   146.0899   0   21  1 
12140.981980  87.27795   -0.9546  189.0650   50.0764   133.6553   134.5458   120.5092   146.2984   0   21  1 
12141.116198  87.27795   -0.9546  189.0650   50.0764   133.8392   134.6710   120.6829   146.4827   0   21  1 
12141.250416  86.93310   -1.0146  189.5890   49.9713   133.6264   134.4284   120.5462   146.5097   0   21  1 
12141.384634  86.74275   -1.0421  189.8780   49.9179   133.7852   134.3641   120.8165   146.2903   0   21  1 
12141.518852  86.74275   -1.0421  189.8780   49.9179   133.6406   134.4838   120.5874   146.4840   0   21  1 
12141.653070  86.74275   -1.0421  189.8780   49.9179   133.7447   134.5502   120.7071   146.5088   0   21  1 
12141.787288  86.35260   -1.0680  190.4750   49.8362   133.9962   134.6418   120.7019   146.9691   0   21  1 
12141.921506  86.35260   -1.0680  190.4750   49.8362   133.6102   134.5632   120.6864   146.6352   0   21  1 
12142.055724  86.05440   -1.0869  190.9300   49.7727   133.9097   134.3761   120.6055   146.4527   0   21  1 
12142.189942  85.73730   -1.1011  191.4140   49.7089   133.8368   134.3650   120.5703   146.5861   0   21  1 
12142.324160  85.73730   -1.1011  191.4140   49.7089   133.8828   134.4320   120.8283   146.2718   0   21  1 
12142.458378  85.73730   -1.1011  191.4140   49.7089   133.9813   134.5456   120.8187   146.4326   0   21  1 
12142.592596  85.19280   -1.1299  192.2410   49.5902   133.7578   134.5233   120.7663   146.5600   0   21  1 
12142.726814  85.19280   -1.1299  192.2410   49.5902   133.8345   134.3303   120.6249   146.4384   0   21  1 
12142.861032  85.04535   -1.1352  192.4650   49.5595   133.8037   134.3208   120.6501   146.3138   0   21  1 
12142.995250  85.04535   -1.1352  192.4650   49.5595   133.6746   134.1989   120.6622   146.2328   0   21  1 
12143.129468  85.04535   -1.1352  192.4650   49.5595   133.6175   134.1868   120.8159   146.1184   0   21  1 
12143.263686  84.50280   -1.1584  193.2850   49.4392   133.7954   134.2051   120.6376   146.0144   0   21  1 
12143.397904  84.27750   -1.1698  193.6240   49.3858   133.5639   134.1170   120.6291   146.1078   0   21  1 
12143.532122  84.27750   -1.1698  193.6240   49.3858   133.5375   134.3227   120.5231   146.3007   0   21  0 
12143.666340  83.88060   -1.1838  194.2210   49.2951   133.4844   134.3633   120.6298   146.3869   0   21  0 
12143.800558  83.88060   -1.1838  194.2210   49.2951   133.4600   134.1976   120.2699   146.0013   0   21  0 
12143.934776  83.88060   -1.1838  194.2210   49.2951   133.3517   134.2701   120.5207   146.4833   0   21  0 
12144.068994  83.80575   -1.1876  194.3330   49.2766   133.3028   134.1408   120.4561   146.4054   0   21  0 
12144.203212  83.59005   -1.1865  194.6590   49.2342   133.5825   134.0937   120.7015   146.3377   0   21  0 
12144.337430  83.59005   -1.1865  194.6590   49.2342   133.5423   134.1056   120.5324   146.2290   0   21  0 
12144.471648  83.33490   -1.0477  195.0880   49.3176   133.6066   134.2623   120.4622   146.1738   0   21  0 
12144.605866  83.20095   -0.8959  195.3400   49.4378   133.5275   134.0930   120.4466   146.2362   0   21  0 
12144.740084  83.20095   -0.8959  195.3400   49.4378   133.3422   134.2693   120.5196   146.2537   0   21  0 
12144.874302  83.13510   -0.8291  195.4620   49.4891   133.3860   134.0750   120.4501   146.2648   0   21  0 
12145.008520  83.04090   -0.7197  195.6420   49.5756   133.5293   134.0600   120.5923   146.4213   0   21  0 
12145.142738  83.04090   -0.7197  195.6420   49.5756   133.4144   133.9804   120.5208   146.3283   0   21  0 
12145.276956  83.02755   -0.6649  195.6820   49.6261   133.2201   134.4638   120.4265   146.4140   0   21  0 
12145.411174  83.02575   -0.6496  195.6910   49.6405   133.5016   134.2106   120.4912   146.3786   0   21  0 
12145.545392  83.02575   -0.6496  195.6910   49.6405   133.5409   134.0422   120.4120   146.2838   0   21  0 
12145.679610  83.02575   -0.6386  195.6960   49.6510   133.3681   134.0997   120.4454   146.4076   0   22  1 
12145.813828  83.02605   -0.6241  195.7020   49.6651   133.3079   134.0248   120.3234   146.0666   0   22  1 
12145.948046  83.02605   -0.6241  195.7020   49.6651   133.4327   134.1756   120.5138   146.0893   0   22  1 
12146.082264  83.02560   -0.6193  195.7050   49.6695   133.5263   134.3372   120.4355   146.2503   0   22  1 
12146.216482  83.02635   -0.6120  195.7080   49.6766   133.7350   134.1119   120.4659   146.1706   0   22  1 
12146.350700  83.02635   -0.6120  195.7080   49.6766   133.5277   134.2019   120.4426   146.2201   0   22  1 
12146.484918  83.02545   -0.6101  195.7110   49.6781   133.3270   134.0665   120.4473   146.2352   0   22  1 
12146.619136  83.02620   -0.6084  195.7120   49.6797   133.2822   134.1775   120.6031   145.9229   0   22  1 
12146.753354  83.02620   -0.6084  195.7120   49.6797   133.4911   134.0705   120.5386   146.2047   0   22  1 
12146.887572  83.02725   -0.6068  195.7130   49.6812   133.5577   134.1964   120.4298   146.0866   0   22  1 
12147.021790  83.02845   -0.6063  195.7130   49.6817   133.4758   133.9963   120.4481   146.0885   0   22  1 
12147.156008  83.02845   -0.6063  195.7130   49.6817   133.3932   134.2412   120.3410   146.3678   0   22  1 
12147.290226  83.02920   -0.6064  195.7130   49.6816   133.4464   134.1678   120.6127   146.2553   0   22  1 
12147.424444  83.07075   -0.5696  195.6640   49.7264   133.4940   134.1855   120.6280   146.3214   0   22  1 
12147.558662  83.07075   -0.5696  195.6640   49.7264   133.3210   134.2129   120.5186   146.1020   0   22  1 
12147.692880  83.07075   -0.5696  195.6640   49.7264   133.3027   134.2155   120.4155   146.2854   0   22  1 
12147.827098  83.33040   -0.3572  195.3430   49.9892   133.4086   133.9806   120.3323   146.1530   0   22  1 
12147.961316  83.33040   -0.3572  195.3430   49.9892   133.2564   134.1425   120.4039   146.0609   0   22  1 
12148.095534  83.42595   -0.3337  195.2060   50.0323   133.6062   134.1783   120.5323   145.9673   0   22  1 
12148.229752  83.42595   -0.3337  195.2060   50.0323   133.3045   134.1795   120.4298   146.0434   0   22  1 
12148.363970  83.42595   -0.3337  195.2060   50.0323   133.5412   134.0894   120.4572   146.3490   0   22  1 
12148.498188  83.85870   -0.2987  194.5580   50.1552   133.7143   134.2256   120.6239   145.9640   0   22  1 
12148.632406  84.10545   -0.2973  194.1810   50.2055   133.7131   134.0892   120.7669   146.1537   0   22  1 
12148.766624  84.10545   -0.2973  194.1810   50.2055   133.7158   134.1828   120.8995   146.1940   0   22  1 
12148.900842  84.10545   -0.2973  194.1810   50.2055   133.5996   133.9969   120.4668   145.7066   0   22  1 
12149.035060  84.53685   -0.3030  193.5180   50.2824   133.5381   134.2364   120.6034   146.3161   0   22  1 
12149.169278  84.53685   -0.3030  193.5180   50.2824   133.7201   134.2180   120.4851   146.0493   0   22  1 
12149.303496  84.53685   -0.3030  193.5180   50.2824   133.7200   134.1734   120.6039   146.2366   0   22  1 
12149.437714  84.99345   -0.3118  192.8130   50.3570   133.3704   134.0504   120.4846   146.1526   0   22  1 
12149.571932  85.13475   -0.3160  192.5940   50.3778   133.8156   134.1445   120.5922   145.8223   0   22  1 
12149.706150  85.13475   -0.3160  192.5940   50.3778   133.5278   134.1546   120.3244   146.2665   0   22  1 
12149.840368  85.13475   -0.3160  192.5940   50.3778   133.5559   134.1226   120.5214   145.9800   0   22  1 
12149.974586  85.65720   -0.3299  191.7830   50.4525   133.6677   134.1826   120.5227   146.1315   0   22  1 
12150.108804  85.65720   -0.3299  191.7830   50.4525   133.6266   134.4333   120.6640   146.1770   0   22  1 
12150.243022  85.65720   -0.3299  191.7830   50.4525   133.8079   134.2178   120.6016   145.9419   0   22  1 
12150.377240  85.89360   -0.3406  191.4140   50.4801   133.4894   134.0847   120.3962   145.9905   0   22  1 
12150.511458  85.89360   -0.3406  191.4140   50.4801   133.5369   133.9167   120.5606   146.0183   0   22  1 
12150.645676  86.31660   -0.3559  190.7540   50.5303   133.7132   134.1363   120.4432   145.8136   0   22  0 
12150.779894  86.55420   -0.3621  190.3830   50.5593   133.6961   134.0300   120.6321   145.9004   0   22  0 
12150.914112  86.55420   -0.3621  190.3830   50.5593   133.6719   134.1732   120.6294   146.2625   0   22  0 
12151.048330  86.55420   -0.3621  190.3830   50.5593   133.8270   134.1897   120.6852   146.0673   0   22  0 
12151.182548  86.82960   -0.3718  189.9520   50.5888   133.4267   134.1619   120.7355   146.1163   0   22  0 
12151.316766  86.82960   -0.3718  189.9520   50.5888   133.6449   134.3415   120.6468   146.1592   0   22  0 
12151.450984  86.99280   -0.4406  189.6830   50.5431   133.8496   134.2969   120.7231   146.1683   0   22  0 
12151.585202  87.16800   -0.4328  189.4120   50.5742   133.7331   134.2618   120.5977   145.9464   0   22  0 
12151.719420  87.16800   -0.4328  189.4120   50.5742   133.5114   134.1927   120.5975   146.1660   0   22  0 
12151.853638  87.29520   -0.4290  189.2150   50.5946   133.6402   134.3984   120.4935   146.0122   0   22  0 
12151.987856  87.39945   -0.4405  189.0510   50.5965   133.8101   134.1611   120.5624   146.3536   0   22  0 
12152.122074  87.39945   -0.4405  189.0510   50.5965   133.7847   134.1637   120.6570   146.1082   0   22  0 
12152.256292  87.43440   -0.4326  188.9990   50.6087   133.7882   134.1406   120.6495   146.1743   0   23  1 
12152.390510  87.42765   -0.4311  189.0110   50.6092   133.6768   134.2645   120.7361   146.2857   0   23  1 
12152.524728  87.42765   -0.4311  189.0110   50.6092   133.6923   134.4110   120.6787   146.1964   0   23  1 
12152.658946  87.43530   -0.4311  189.0000   50.6101   133.6456   134.4751   120.7557   146.3070   0   23  1 
12152.793164  87.43530   -0.4311  189.0000   50.6101   133.7472   134.2315   120.7397   146.2181   0   23  1 
12152.927382  87.44010   -0.4267  188.9950   50.6149   133.8255   134.2997   120.5875   146.1784   0   23  1 
12153.061600  87.44280   -0.4286  188.9920   50.6133   133.9146   134.3463   120.7798   146.1519   0   23  1 
12153.195818  87.44280   -0.4286  188.9920   50.6133   133.8806   134.3282   120.6178   146.1557   0   23  1 
12153.330036  87.44850   -0.4249  188.9850   50.6176   133.9753   134.3653   120.7104   146.3217   0   23  1 
12153.464254  87.45300   -0.4238  188.9810   50.6190   133.6309   134.2834   120.7860   146.0210   0   23  1 
12153.598472  87.45300   -0.4238  188.9810   50.6190   133.8831   134.1316   120.7087   146.2837   0   23  1 
12153.732690  87.45300   -0.4238  188.9810   50.6190   133.9319   134.1400   120.6240   146.1587   0   23  1 
12153.866908  87.43260   -0.4444  189.0120   50.5957   133.8000   134.0612   120.7259   146.4022   0   23  1 
12154.001126  87.43260   -0.4444  189.0120   50.5957   133.7494   134.0126   120.9047   145.8361   0   23  1 
12154.135344  87.38415   -0.4879  189.0800   50.5462   133.7698   133.9868   120.6810   145.8464   0   23  1 
12154.269562  87.27210   -0.5823  189.2370   50.4379   133.5652   133.7803   120.6963   145.8565   0   23  1 
12154.403780  87.27210   -0.5823  189.2370   50.4379   133.5859   133.8829   120.6370   145.8281   0   23  1 
12154.537998  87.27210   -0.5823  189.2370   50.4379   133.6811   134.0641   120.7072   146.0151   0   23  1 
12154.672216  87.05700   -0.6318  189.5640   50.3601   133.7303   134.2114   120.5933   146.0812   0   23  1 
12154.806434  87.05700   -0.6318  189.5640   50.3601   133.4387   133.8830   120.4253   146.0160   0   23  1 
12154.940652  86.80320   -0.6662  189.9530   50.2910   133.5782   134.1213   120.6323   146.1678   0   23  1 
12155.074870  86.80320   -0.6662  189.9530   50.2910   133.6534   134.0862   120.4450   146.2061   0   23  1 
12155.209088  86.80320   -0.6662  189.9530   50.2910   133.5711   134.0680   120.2278   146.1624   0   23  1 
12155.343306  86.27040   -0.7018  190.7740   50.1780   133.6421   134.1137   120.6346   146.1095   0   23  1 
12155.477524  85.97835   -0.7228  191.2220   50.1121   133.6534   134.0544   120.6388   145.9987   0   23  1 
12155.611742  85.97835   -0.7228  191.2220   50.1121   133.5782   134.1326   120.5961   146.2667   0   23  1 
12155.745960  85.97835   -0.7228  191.2220   50.1121   133.6234   133.8451   120.4687   145.8013   0   23  1 
12155.880178  85.51620   -0.7454  191.9310   50.0148   133.8971   134.1415   120.5863   145.8719   0   23  1 
12156.014396  85.51620   -0.7454  191.9310   50.0148   133.6810   133.8502   120.5456   146.0577   0   23  1 
12156.148614  85.29450   -0.7563  192.2700   49.9665   133.6972   133.9767   120.5149   146.0454   0   23  1 
12156.282832  84.97695   -0.7698  192.7550   49.8977   133.6274   134.1164   120.5493   146.1710   0   23  1 
12156.417050  84.97695   -0.7698  192.7550   49.8977   133.6357   134.1116   120.7500   145.9926   0   23  1 
12156.551268  84.97695   -0.7698  192.7550   49.8977   133.4092   133.9321   120.6851   146.0627   0   23  1 
12156.685486  84.50805   -0.7914  193.4680   49.7907   133.5507   133.9907   120.6931   146.1154   0   23  1 
12156.819704  84.50805   -0.7914  193.4680   49.7907   133.4178   133.9810   120.4113   145.9002   0   23  1 
12156.953922  84.35955   -0.7989  193.6930   49.7552   133.5242   133.8169   120.4810   145.9926   0   23  0 
12157.088140  84.35955   -0.7989  193.6930   49.7552   133.5814   133.9097   120.5723   145.9397   0   23  0 
12157.222358  84.35955   -0.7989  193.6930   49.7552   133.4804   133.9720   120.3017   146.1069   0   23  0 
12157.356576  83.74365   -0.8216  194.6250   49.6117   133.4584   133.7776   120.5942   145.8453   0   23  0 
12157.490794  83.74365   -0.8216  194.6250   49.6117   133.3571   133.8683   120.5250   145.8340   0   23  0 
12157.625012  83.74365   -0.8216  194.6250   49.6117   133.4737   133.9889   120.4758   145.9418   0   23  0 
12157.759230  83.54400   -0.8015  194.9350   49.5904   133.3632   133.7397   120.4660   146.1615   0   23  0 
12157.893448  83.41350   -0.6983  195.1670   49.6642   133.4454   133.9670   120.3938   145.9805   0   23  0 
12158.027666  83.41350   -0.6983  195.1670   49.6642   133.4535   133.8402   120.4490   145.8700   0   23  0 
12158.161884  83.35710   -0.6194  195.2790   49.7295   133.3988   133.5329   120.4714   145.8661   0   23  0 
12158.296102  83.22930   -0.5008  195.5130   49.8182   133.4153   133.8329   120.3983   145.9613   0   23  0 
12158.430320  83.22930   -0.5008  195.5130   49.8182   133.3025   133.9854   120.4981   146.0065   0   23  0 
12158.564538  83.06460   -0.3558  195.8140   49.9241   133.4006   133.7077   120.4499   145.9843   0   23  0 
12158.698756  83.02845   -0.3036  195.8880   49.9670   133.3706   133.8827   120.5872   145.8843   0   23  0 
12158.832974  83.02845   -0.3036  195.8880   49.9670   133.4608   133.8709   120.6571   145.9234   0   23  0 
12158.967192  83.02785   -0.2832  195.8970   49.9866   133.2412   133.8304   120.3656   145.7933   0   23  0 
12159.101410  83.03085   -0.2750  195.8960   49.9952   133.2180   133.5182   120.4494   145.5238   0   23  0 
12159.235628  83.03085   -0.2750  195.8960   49.9952   133.3071   133.8294   120.2342   145.9037   0   23  0 
12159.369846  83.02530   -0.2610  195.9110   50.0074   133.2114   133.9431   120.2596   146.0552   0   24  1 
12159.504064  83.02635   -0.2522  195.9140   50.0160   133.1505   133.8457   120.3229   145.7385   0   24  1 
12159.638282  83.02635   -0.2522  195.9140   50.0160   133.2667   133.9376   120.2119   146.0413   0   24  1 
12159.772500  83.02425   -0.2469  195.9200   50.0206   133.4762   134.0889   120.4268   146.0216   0   24  1 
12159.906718  83.02560   -0.2445  195.9200   50.0230   133.4157   133.9482   120.4228   146.0564   0   24  1 
12160.040936  83.02560   -0.2445  195.9200   50.0230   133.1883   134.2071   120.3543   146.2448   0   24  1 
12160.175154  83.02500   -0.2409  195.9230   50.0263   133.2133   134.0660   120.4532   146.2053   0   24  1 
12160.309372  83.02680   -0.2407  195.9220   50.0266   133.4292   133.9293   120.4500   145.9911   0   24  1 
12160.443590  83.02680   -0.2407  195.9220   50.0266   133.2792   134.0070   120.3651   146.1599   0   24  1 
12160.577808  83.02830   -0.2389  195.9230   50.0283   133.4070   133.9022   120.4194   145.8541   0   24  1 
12160.712026  83.02890   -0.2369  195.9240   50.0302   133.3666   134.0150   120.4008   146.0432   0   24  1 
12160.846244  83.02890   -0.2369  195.9240   50.0302   133.1955   133.8307   120.3815   146.0021   0   24  1 
12160.980462  83.02980   -0.2380  195.9230   50.0292   133.2124   134.2123   120.4247   145.8626   0   24  1 
12161.114680  83.02980   -0.2380  195.9230   50.0292   133.2201   134.0368   120.3408   146.0005   0   24  1 
12161.248898  83.02980   -0.2380  195.9230   50.0292   133.2675   134.1357   120.5924   146.1080   0   24  1 
12161.383116  83.20725   -0.0514  195.7190   50.2498   133.4576   133.8886   120.3906   146.0241   0   24  1 
12161.517334  83.20725   -0.0514  195.7190   50.2498   133.3726   133.7639   120.3421   145.8671   0   24  1 
12161.651552  83.20725   -0.0514  195.7190   50.2498   133.4193   133.8728   120.3818   145.8404   0   24  1 
12161.785770  83.49360    0.0582  195.3190   50.4180   133.5297   133.8717   120.6343   145.9007   0   24  1 
12161.919988  83.72370    0.0787  194.9730   50.4860   133.5322   134.1614   120.8118   146.2180   0   24  1 
12162.054206  83.72370    0.0787  194.9730   50.4860   133.5548   133.8389   120.5630   145.8446   0   24  1 
12162.188424  83.72370    0.0787  194.9730   50.4860   133.5577   133.9256   120.4831   145.9010   0   24  1 
12162.322642  84.17715    0.0886  194.2780   50.5871   133.5354   133.9726   120.4570   145.9373   0   24  1 
12162.456860  84.17715    0.0886  194.2780   50.5871   133.5917   133.7581   120.5888   145.6920   0   24  1 
12162.591078  84.39225    0.0860  193.9450   50.6264   133.6911   133.8239   120.6159   145.5864   0   24  1 
12162.725296  84.69720    0.0822  193.4720   50.6805   133.5485   133.9252   120.6439   145.8015   0   24  1 
12162.859514  84.69720    0.0822  193.4720   50.6805   133.8801   133.9391   120.5890   145.8514   0   24  1 
12162.993732  84.69720    0.0822  193.4720   50.6805   133.5094   134.0922   120.3960   145.9972   0   24  1 
12163.127950  85.21755    0.0665  192.6600   50.7592   133.4955   134.0413   120.3332   145.8917   0   24  1 
12163.262168  85.21755    0.0665  192.6600   50.7592   133.6222   134.4137   120.2487   146.0050   0   24  1 
12163.396386  85.36020    0.0621  192.4370   50.7797   133.3329   134.0331   120.4324   146.0964   0   24  1 
12163.530604  85.36020    0.0621  192.4370   50.7797   133.4106   134.0346   120.5971   146.0981   0   24  1 
12163.664822  85.36020    0.0621  192.4370   50.7797   133.5453   134.0892   120.5770   146.0627   0   24  1 
12163.799040  85.87740    0.0446  191.6260   50.8489   133.6321   134.1768   120.5362   146.0198   0   24  1 
12163.933258  86.08815    0.0380  191.2950   50.8760   133.6117   134.1126   120.4979   146.1489   0   24  0 
12164.067476  86.08815    0.0380  191.2950   50.8760   133.5907   133.9450   120.5431   146.2067   0    0  0 
12164.201694  86.08815    0.0380  191.2950   50.8760   133.6049   134.1414   120.3865   146.1901   0    0  0 
12164.335912  86.08815    0.0380  191.2950   50.8760   133.5896   134.1405   120.5731   146.1491   0    0  0 
12164.470130  86.08815    0.0380  191.2950   50.8760   133.6143   134.4494   120.5021   146.0602   0    0  0 
12164.604348  86.66475    0.0170  190.3870   50.9424   133.7116   134.0989   120.6620   146.2117   0    0  0 
12164.738566  86.66475    0.0170  190.3870   50.9424   133.7476   134.2252   120.6645   145.8301   0    0  0 
12164.872784  86.66475    0.0170  190.3870   50.9424   133.8978   134.1286   120.6939   145.9635   0    0  0 
12165.007002  86.66475    0.0170  190.3870   50.9424   133.8568   134.0086   120.6323   146.0916   0    0  0 
12165.141220  86.84415   -0.0672  190.0870   50.8846   133.9384   134.2437   120.4276   145.8970   0    0  0 
12165.275438  86.84415   -0.0672  190.0870   50.8846   133.7637   134.1383   120.6437   146.1121   0    0  0 
12165.409656  86.84415   -0.0672  190.0870   50.8846   133.8242   134.1466   120.6636   146.1185   0    0  0 
12165.543874  86.84415   -0.0672  190.0870   50.8846   133.7456   134.0277   120.7068   145.8987   0    0  0 
12165.678092  86.84415   -0.0672  190.0870   50.8846   133.7803   134.2896   120.6001   146.0498   0    0  0 
12165.812310  86.84415   -0.0672  190.0870   50.8846   133.8010   134.1935   120.9014   146.1560   0    0  0 
12165.946528  86.84415   -0.0672  190.0870   50.8846   133.7039   134.3020   120.5181   145.9967   0    0  0 
12166.080746  86.84415   -0.0672  190.0870   50.8846   133.9350   134.1280   120.6191   146.0492   0    0  0 
12166.214964  86.93340   -0.0601  189.9510   50.9040   138.9910   140.0723   125.9333   151.8473  -1    0  0 
12166.349182  86.93340   -0.0601  189.9510   50.9040   139.2919   140.2884   126.1603   152.4780   1    0  0 
12166.483400  86.93340   -0.0601  189.9510   50.9040   142.9851   144.5173   130.0884   156.5572   1    0  0 
12166.617618  86.91735   -0.0607  189.9840   50.9004   143.1404   144.7590   130.1962   156.4591   1    0  0 
12166.751836  86.91945   -0.0558  189.9830   50.9055   143.1506   144.5105   130.1098   156.5775   1    0  0 
12166.886054  86.91945   -0.0558  189.9830   50.9055   143.0080   144.5205   130.1027   156.7084   1    0  0 
12167.020272  86.92185   -0.0599  189.9800   50.9016   143.0793   144.6789   130.0795   156.6778   1    0  0 
12167.154490  86.92230   -0.0617  189.9800   50.8998   143.2143   144.4308   129.9500   156.4550   1    0  0 
12167.288708  86.92230   -0.0617  189.9800   50.8998   142.9862   144.3555   129.9991   156.3143   1    0  0 
12167.422926  86.92230   -0.0587  189.9820   50.9026   143.0822   144.2257   129.9851   156.2757   1    0  0 
12167.557144  86.92215   -0.0607  189.9830   50.9005   142.9617   144.3292   129.7275   156.1998   1    0  0 
12167.691362  86.92215   -0.0607  189.9830   50.9005   143.0537   144.3058   129.9874   156.2323   1    0  0 
12167.825580  86.92170   -0.0562  189.9860   50.9048   143.0320   144.6209   129.8009   156.4455   1    0  0 
12167.959798  86.92215   -0.0584  189.9860   50.9026   143.2347   144.5750   129.8813   156.6536   1    0  0 
12168.094016  86.92215   -0.0584  189.9860   50.9026   142.9532   144.5605   129.9158   156.6905   1    0  0 
